time,wavelength_shift_1,wavelength_shift_2
0.008,-0.5846,-0.4173
0.017,-0.5846,-0.418
0.025,-0.5832,-0.4188
0.033,-0.5841,-0.4183
0.04,-0.5827,-0.4163
0.049,-0.5844,-0.4183
0.057,-0.5857,-0.4206
0.065,-0.5815,-0.4194
0.073,-0.5824,-0.4196
0.081,-0.5837,-0.42
0.091,-0.5815,-0.4169
0.101,-0.5849,-0.4174
0.109,-0.583,-0.4174
0.118,-0.5833,-0.4203
0.126,-0.582,-0.4172
0.134,-0.5863,-0.4164
0.142,-0.5831,-0.4188
0.151,-0.5815,-0.4179
0.187,-0.5845,-0.4209
0.216,-0.5858,-0.4228
0.244,-0.5842,-0.4221
0.273,-0.5857,-0.4233
0.303,-0.5866,-0.4206
0.332,-0.5845,-0.4218
0.362,-0.5839,-0.4214
0.4,-0.5823,-0.4213
0.421,-0.5869,-0.4225
0.451,-0.5842,-0.4201
0.479,-0.5863,-0.4232
0.51,-0.5845,-0.4213
0.54,-0.5863,-0.4216
0.585,-0.5863,-0.4225
0.599,-0.5854,-0.421
0.628,-0.5846,-0.4221
0.658,-0.5855,-0.4214
0.688,-0.581,-0.4241
0.717,-0.5891,-0.4213
0.747,-0.5844,-0.4221
0.777,-0.5869,-0.4235
0.806,-0.5836,-0.4206
0.835,-0.5862,-0.4192
0.864,-0.5848,-0.4222
0.894,-0.584,-0.4202
0.925,-0.5835,-0.4217
0.959,-0.5803,-0.4225
1.006,-0.5847,-0.421
1.019,-0.5837,-0.42
1.042,-0.5859,-0.4222
1.073,-0.5842,-0.4217
1.103,-0.5861,-0.4217
1.132,-0.5816,-0.4243
1.162,-0.588,-0.4195
1.19,-0.5881,-0.4214
1.22,-0.5838,-0.4228
1.249,-0.5831,-0.4183
1.279,-0.586,-0.4229
1.31,-0.5863,-0.4256
1.339,-0.5859,-0.4184
1.368,-0.5839,-0.4242
1.397,-0.5801,-0.4235
1.428,-0.5829,-0.42
1.457,-0.5855,-0.4213
1.487,-0.5883,-0.4266
1.522,-0.5837,-0.4236
1.546,-0.5849,-0.4236
1.576,-0.5868,-0.4222
1.606,-0.5837,-0.4228
1.634,-0.5853,-0.4204
1.664,-0.5853,-0.4224
1.694,-0.5851,-0.4227
1.724,-0.5832,-0.4193
1.754,-0.5873,-0.4195
1.782,-0.5857,-0.4238
1.812,-0.5892,-0.4232
1.844,-0.5865,-0.4236
1.872,-0.5849,-0.4223
1.901,-0.5851,-0.4221
1.931,-0.5852,-0.4252
1.96,-0.5876,-0.4218
1.99,-0.5867,-0.4229
2.02,-0.5854,-0.4228
2.05,-0.5855,-0.4239
2.079,-0.5824,-0.4222
2.108,-0.5851,-0.4211
2.139,-0.5839,-0.4222
2.177,-0.5873,-0.4228
2.197,-0.5875,-0.4204
2.227,-0.5834,-0.4222
2.256,-0.5859,-0.4212
2.286,-0.5845,-0.4227
2.316,-0.5871,-0.4244
2.345,-0.5859,-0.4213
2.375,-0.5826,-0.4241
2.406,-0.584,-0.4241
2.434,-0.5895,-0.4254
2.464,-0.5846,-0.4225
2.493,-0.5829,-0.4214
2.523,-0.5868,-0.4225
2.552,-0.584,-0.4252
2.582,-0.5829,-0.4245
2.612,-0.584,-0.4243
2.644,-0.5832,-0.4211
2.671,-0.5857,-0.4224
2.701,-0.5847,-0.4222
2.733,-0.5802,-0.4245
2.761,-0.5849,-0.4215
2.789,-0.5855,-0.4206
2.819,-0.5852,-0.4236
2.849,-0.5863,-0.4224
2.878,-0.5833,-0.422
2.91,-0.5851,-0.4229
2.937,-0.5844,-0.4243
2.967,-0.584,-0.4232
2.997,-0.5869,-0.4212
3.027,-0.5841,-0.4233
3.056,-0.5835,-0.4246
3.086,-0.5837,-0.4238
3.115,-0.5832,-0.4225
3.145,-0.5844,-0.4222
3.174,-0.5868,-0.4225
3.204,-0.589,-0.4246
3.234,-0.5835,-0.4243
3.263,-0.5865,-0.4271
3.293,-0.5871,-0.424
3.325,-0.5865,-0.424
3.354,-0.5849,-0.4235
3.382,-0.5841,-0.4243
3.411,-0.5837,-0.4229
3.441,-0.5849,-0.4271
3.47,-0.5841,-0.4235
3.504,-0.5824,-0.4242
3.53,-0.5858,-0.4252
3.559,-0.5865,-0.4258
3.589,-0.5844,-0.425
3.634,-0.5854,-0.4229
3.648,-0.5823,-0.4246
3.678,-0.5849,-0.4231
3.706,-0.5836,-0.4208
3.737,-0.585,-0.4223
3.767,-0.5866,-0.4243
3.797,-0.5869,-0.4264
3.826,-0.5832,-0.4271
3.856,-0.5846,-0.427
3.885,-0.5875,-0.4235
3.916,-0.5858,-0.4252
3.945,-0.5857,-0.4274
3.974,-0.5811,-0.425
4.004,-0.5833,-0.4249
4.032,-0.5849,-0.4234
4.063,-0.5869,-0.4254
4.093,-0.5822,-0.4239
4.122,-0.5846,-0.4264
4.152,-0.5852,-0.4256
4.181,-0.585,-0.4246
4.211,-0.5863,-0.425
4.241,-0.5818,-0.4249
4.27,-0.5897,-0.4264
4.299,-0.5836,-0.4265
4.328,-0.5863,-0.4275
4.358,-0.5852,-0.4269
4.39,-0.5846,-0.4303
4.417,-0.5852,-0.4268
4.447,-0.5844,-0.4232
4.478,-0.5855,-0.4271
4.507,-0.5854,-0.4264
4.536,-0.5844,-0.4269
4.566,-0.584,-0.4278
4.596,-0.5852,-0.4261
4.625,-0.5829,-0.4266
4.654,-0.5808,-0.4291
4.688,-0.5877,-0.4268
4.714,-0.5866,-0.4267
4.747,-0.5851,-0.4264
4.773,-0.5858,-0.4249
4.803,-0.5845,-0.425
4.834,-0.5837,-0.4241
4.863,-0.584,-0.4278
4.891,-0.5819,-0.4291
4.922,-0.5851,-0.4259
4.952,-0.5811,-0.4279
4.981,-0.5865,-0.4247
5.011,-0.5848,-0.426
5.041,-0.5875,-0.4288
5.072,-0.583,-0.4268
5.101,-0.5863,-0.4282
5.128,-0.5837,-0.4263
5.158,-0.5876,-0.4285
5.188,-0.5856,-0.4258
5.217,-0.585,-0.4271
5.247,-0.5865,-0.4271
5.278,-0.5851,-0.4304
5.307,-0.5848,-0.4265
5.337,-0.5863,-0.4273
5.372,-0.5844,-0.4269
5.396,-0.5879,-0.4254
5.425,-0.5861,-0.4285
5.454,-0.5837,-0.4263
5.484,-0.5851,-0.4262
5.514,-0.5866,-0.4268
5.543,-0.586,-0.4249
5.574,-0.5867,-0.4257
5.603,-0.5854,-0.4257
5.633,-0.5846,-0.4263
5.663,-0.5883,-0.4254
5.692,-0.5813,-0.4271
5.722,-0.5867,-0.428
5.752,-0.5863,-0.4265
5.78,-0.5847,-0.4275
5.81,-0.5841,-0.4252
5.839,-0.5852,-0.4266
5.869,-0.5824,-0.428
5.901,-0.584,-0.4283
5.928,-0.5866,-0.4225
5.959,-0.586,-0.4271
5.988,-0.5837,-0.4271
6.017,-0.5877,-0.4249
6.047,-0.584,-0.4274
6.076,-0.5835,-0.4277
6.106,-0.5851,-0.4255
6.136,-0.5875,-0.4256
6.166,-0.581,-0.4261
6.196,-0.5875,-0.4264
6.226,-0.5829,-0.4298
6.255,-0.5871,-0.4254
6.284,-0.5851,-0.4266
6.314,-0.5866,-0.4261
6.343,-0.5855,-0.4246
6.373,-0.5868,-0.4294
6.402,-0.5868,-0.4239
6.432,-0.5857,-0.4272
6.462,-0.5862,-0.4288
6.491,-0.5876,-0.4256
6.521,-0.5871,-0.4249
6.553,-0.5858,-0.4255
6.584,-0.5854,-0.4265
6.61,-0.5858,-0.4257
6.639,-0.5807,-0.4245
6.669,-0.5862,-0.4243
6.699,-0.5848,-0.4256
6.728,-0.5857,-0.4276
6.758,-0.5869,-0.4254
6.788,-0.5871,-0.4247
6.817,-0.5855,-0.4233
6.847,-0.5855,-0.4239
6.877,-0.5886,-0.4233
6.906,-0.5848,-0.4276
6.936,-0.5885,-0.4253
6.965,-0.5819,-0.4257
6.995,-0.5809,-0.4271
7.025,-0.5849,-0.4269
7.055,-0.5865,-0.4237
7.084,-0.5841,-0.4257
7.116,-0.5835,-0.4259
7.149,-0.5879,-0.4286
7.173,-0.5854,-0.4291
7.202,-0.5883,-0.4261
7.232,-0.5851,-0.4285
7.262,-0.5832,-0.4229
7.291,-0.5858,-0.4291
7.321,-0.5855,-0.4272
7.354,-0.5872,-0.4261
7.38,-0.5856,-0.4252
7.41,-0.5839,-0.4288
7.441,-0.5821,-0.4277
7.47,-0.5819,-0.4263
7.499,-0.5859,-0.4279
7.528,-0.5853,-0.4257
7.558,-0.5858,-0.4262
7.588,-0.5879,-0.4254
7.617,-0.5868,-0.4271
7.647,-0.5852,-0.426
7.676,-0.5831,-0.4258
7.706,-0.5858,-0.4313
7.736,-0.583,-0.4262
7.765,-0.5857,-0.4244
7.795,-0.587,-0.4259
7.825,-0.5899,-0.4274
7.854,-0.5847,-0.4277
7.886,-0.5849,-0.4262
7.913,-0.5855,-0.4252
7.948,-0.5835,-0.4275
7.973,-0.5864,-0.4255
8.002,-0.585,-0.4255
8.032,-0.5848,-0.4273
8.061,-0.5869,-0.4269
8.091,-0.5883,-0.4252
8.121,-0.5861,-0.426
8.15,-0.5849,-0.4268
8.18,-0.5846,-0.4268
8.21,-0.5837,-0.4258
8.24,-0.585,-0.427
8.27,-0.5849,-0.4255
8.298,-0.5861,-0.4272
8.329,-0.586,-0.427
8.358,-0.5866,-0.426
8.386,-0.5898,-0.4293
8.416,-0.5848,-0.4288
8.447,-0.5869,-0.4272
8.476,-0.5863,-0.4264
8.506,-0.586,-0.4288
8.536,-0.5844,-0.4282
8.565,-0.5872,-0.4282
8.595,-0.5879,-0.4274
8.624,-0.5876,-0.4287
8.656,-0.584,-0.4276
8.684,-0.585,-0.4266
8.713,-0.588,-0.4243
8.742,-0.5889,-0.426
8.773,-0.5835,-0.426
8.802,-0.5833,-0.4276
8.832,-0.5835,-0.4265
8.861,-0.5832,-0.4286
8.891,-0.5841,-0.4276
8.925,-0.5895,-0.4288
8.95,-0.587,-0.4259
8.98,-0.5864,-0.4239
9.01,-0.5844,-0.4283
9.04,-0.5847,-0.4235
9.069,-0.5872,-0.4281
9.099,-0.5863,-0.4258
9.128,-0.5861,-0.4295
9.157,-0.5854,-0.4257
9.187,-0.5848,-0.4287
9.216,-0.5854,-0.4244
9.247,-0.5871,-0.4275
9.276,-0.5877,-0.4279
9.306,-0.586,-0.4303
9.336,-0.5857,-0.4271
9.365,-0.5838,-0.427
9.395,-0.5868,-0.4282
9.425,-0.5879,-0.4274
9.453,-0.5878,-0.4302
9.483,-0.5885,-0.4293
9.514,-0.5854,-0.4282
9.543,-0.5851,-0.4297
9.573,-0.5855,-0.4291
9.601,-0.5814,-0.425
9.631,-0.5859,-0.4257
9.661,-0.5844,-0.4281
9.69,-0.5838,-0.429
9.721,-0.5859,-0.4282
9.752,-0.5872,-0.4301
9.78,-0.5884,-0.4284
9.816,-0.5876,-0.4275
9.84,-0.5871,-0.4252
9.869,-0.5873,-0.4288
9.898,-0.5873,-0.426
9.927,-0.5863,-0.4279
9.957,-0.5872,-0.4309
9.987,-0.5858,-0.4261
10.017,-0.5834,-0.4261
10.046,-0.5888,-0.4275
10.077,-0.584,-0.4272
10.105,-0.5836,-0.425
10.136,-0.5897,-0.429
10.166,-0.5908,-0.4291
10.194,-0.5863,-0.4275
10.224,-0.5844,-0.4266
10.253,-0.5867,-0.4271
10.283,-0.5839,-0.4264
10.312,-0.5844,-0.4274
10.344,-0.5876,-0.4261
10.377,-0.5868,-0.428
10.402,-0.5839,-0.4289
10.432,-0.5843,-0.4278
10.461,-0.5882,-0.4283
10.49,-0.5848,-0.428
10.52,-0.5827,-0.43
10.55,-0.5857,-0.4292
10.579,-0.5842,-0.4305
10.612,-0.5833,-0.429
10.639,-0.5836,-0.428
10.669,-0.5894,-0.434
10.698,-0.5859,-0.4299
10.727,-0.5837,-0.4303
10.757,-0.5866,-0.4287
10.787,-0.5858,-0.4307
10.816,-0.5871,-0.4307
10.846,-0.5892,-0.4321
10.875,-0.5866,-0.4316
10.906,-0.5846,-0.4303
10.936,-0.5881,-0.4288
10.965,-0.5842,-0.4301
10.994,-0.5876,-0.4285
11.024,-0.5852,-0.4303
11.053,-0.5895,-0.4299
11.083,-0.589,-0.4315
11.112,-0.5848,-0.4303
11.145,-0.5865,-0.4274
11.172,-0.5835,-0.4302
11.201,-0.5851,-0.4318
11.231,-0.5855,-0.4286
11.261,-0.586,-0.4296
11.29,-0.5853,-0.431
11.322,-0.5845,-0.4313
11.351,-0.5845,-0.4302
11.379,-0.587,-0.4322
11.409,-0.5832,-0.4311
11.438,-0.5847,-0.4297
11.468,-0.5873,-0.4294
11.498,-0.5854,-0.4288
11.527,-0.5865,-0.43
11.557,-0.5869,-0.431
11.587,-0.5853,-0.4322
11.617,-0.5818,-0.4313
11.646,-0.5838,-0.4323
11.675,-0.5835,-0.429
11.704,-0.5904,-0.4315
11.735,-0.5851,-0.4296
11.764,-0.5857,-0.4284
11.796,-0.5855,-0.4302
11.823,-0.584,-0.4327
11.854,-0.5885,-0.4284
11.884,-0.5855,-0.4301
11.912,-0.5846,-0.4324
11.942,-0.5879,-0.4266
11.971,-0.5871,-0.4304
12,-0.5873,-0.4308
12.031,-0.5849,-0.4322
12.059,-0.5848,-0.4299
12.09,-0.5832,-0.4308
12.12,-0.5831,-0.4323
12.149,-0.5804,-0.4341
12.179,-0.5867,-0.4288
12.208,-0.5898,-0.4311
12.238,-0.5838,-0.4295
12.268,-0.5848,-0.4307
12.297,-0.5843,-0.431
12.327,-0.5861,-0.4308
12.355,-0.5863,-0.4305
12.386,-0.5846,-0.4302
12.416,-0.5872,-0.4326
12.445,-0.585,-0.4327
12.476,-0.583,-0.4324
12.505,-0.5854,-0.4304
12.534,-0.5865,-0.431
12.564,-0.5869,-0.4349
12.594,-0.5828,-0.432
12.623,-0.5866,-0.431
12.653,-0.5862,-0.4335
12.684,-0.5891,-0.432
12.712,-0.5841,-0.4327
12.742,-0.5852,-0.433
12.776,-0.5835,-0.4308
12.802,-0.586,-0.4327
12.83,-0.5861,-0.433
12.859,-0.5849,-0.4321
12.889,-0.5827,-0.4305
12.918,-0.5848,-0.4324
12.948,-0.5837,-0.4318
12.979,-0.5837,-0.432
13.008,-0.5864,-0.4318
13.038,-0.5821,-0.4322
13.068,-0.5832,-0.4312
13.097,-0.584,-0.4306
13.127,-0.5808,-0.4316
13.157,-0.5844,-0.4327
13.186,-0.5816,-0.4329
13.22,-0.5867,-0.4322
13.247,-0.587,-0.4357
13.275,-0.5839,-0.435
13.304,-0.5849,-0.4345
13.333,-0.586,-0.4347
13.363,-0.5835,-0.4319
13.393,-0.5844,-0.4338
13.422,-0.5857,-0.431
13.452,-0.5823,-0.4313
13.482,-0.5855,-0.4313
13.512,-0.5853,-0.4318
13.542,-0.5843,-0.4329
13.571,-0.5862,-0.4324
13.601,-0.5846,-0.4335
13.63,-0.5839,-0.433
13.661,-0.5852,-0.4352
13.689,-0.5829,-0.4327
13.718,-0.5854,-0.433
13.748,-0.5827,-0.432
13.778,-0.5826,-0.4351
13.807,-0.5843,-0.4327
13.837,-0.5836,-0.4307
13.867,-0.5832,-0.4341
13.897,-0.5858,-0.4345
13.927,-0.5858,-0.4317
13.956,-0.5836,-0.4332
13.986,-0.584,-0.4338
14.016,-0.5851,-0.4299
14.044,-0.5835,-0.4336
14.074,-0.5863,-0.4308
14.105,-0.5832,-0.433
14.133,-0.5846,-0.4366
14.163,-0.5853,-0.4341
14.192,-0.5831,-0.4312
14.222,-0.5816,-0.4315
14.252,-0.5853,-0.4344
14.283,-0.5864,-0.4335
14.312,-0.5808,-0.4311
14.342,-0.5881,-0.4344
14.37,-0.5837,-0.4304
14.4,-0.5876,-0.4343
14.431,-0.586,-0.4323
14.459,-0.5843,-0.4343
14.489,-0.5827,-0.4332
14.519,-0.584,-0.4329
14.552,-0.5837,-0.4305
14.579,-0.5831,-0.4304
14.607,-0.5855,-0.4318
14.637,-0.5829,-0.4338
14.667,-0.5865,-0.4346
14.696,-0.5844,-0.4297
14.727,-0.5868,-0.4319
14.755,-0.5846,-0.4318
14.785,-0.5842,-0.433
14.815,-0.5837,-0.433
14.844,-0.5814,-0.4316
14.874,-0.5833,-0.433
14.905,-0.5884,-0.4291
14.934,-0.5856,-0.4352
14.972,-0.586,-0.4327
14.992,-0.5879,-0.4324
15.022,-0.584,-0.431
15.052,-0.5868,-0.433
15.086,-0.5857,-0.4301
15.111,-0.5835,-0.4325
15.14,-0.586,-0.4283
15.17,-0.5854,-0.4308
15.201,-0.5858,-0.4348
15.232,-0.5815,-0.4303
15.259,-0.5874,-0.4315
15.288,-0.5844,-0.4338
15.318,-0.5861,-0.4307
15.348,-0.5805,-0.4307
15.377,-0.5815,-0.43
15.408,-0.5834,-0.4317
15.441,-0.5837,-0.436
15.468,-0.5816,-0.4329
15.496,-0.5862,-0.4365
15.525,-0.5853,-0.435
15.555,-0.587,-0.4363
15.585,-0.5837,-0.4335
15.614,-0.5844,-0.434
15.646,-0.5835,-0.4335
15.673,-0.5857,-0.4335
15.703,-0.5852,-0.433
15.733,-0.5838,-0.4336
15.763,-0.5849,-0.4355
15.796,-0.5803,-0.4356
15.821,-0.5861,-0.4332
15.851,-0.5862,-0.4355
15.881,-0.5866,-0.4341
15.912,-0.5848,-0.4341
15.941,-0.581,-0.4324
15.971,-0.5865,-0.4361
15.999,-0.5846,-0.4338
16.029,-0.5818,-0.4351
16.059,-0.5808,-0.4337
16.088,-0.5865,-0.432
16.118,-0.5813,-0.4321
16.147,-0.5857,-0.4329
16.177,-0.5838,-0.432
16.206,-0.5843,-0.4354
16.236,-0.5846,-0.4333
16.266,-0.5866,-0.4354
16.295,-0.5863,-0.4344
16.325,-0.5851,-0.4348
16.355,-0.5834,-0.4344
16.384,-0.5868,-0.435
16.413,-0.585,-0.4335
16.443,-0.5847,-0.4329
16.472,-0.5839,-0.4356
16.502,-0.5854,-0.4341
16.532,-0.5864,-0.4346
16.562,-0.5871,-0.4343
16.592,-0.5833,-0.4322
16.621,-0.5843,-0.4334
16.651,-0.5851,-0.4363
16.68,-0.5834,-0.4337
16.71,-0.5849,-0.4358
16.743,-0.5841,-0.4336
16.771,-0.5831,-0.4367
16.799,-0.5813,-0.4336
16.829,-0.583,-0.4349
16.858,-0.5851,-0.4365
16.888,-0.5852,-0.4348
16.919,-0.5863,-0.4353
16.948,-0.5808,-0.4318
16.977,-0.5827,-0.4354
17.007,-0.5857,-0.4345
17.036,-0.5827,-0.4345
17.066,-0.5868,-0.4341
17.095,-0.5816,-0.4349
17.126,-0.5845,-0.434
17.158,-0.5838,-0.4341
17.184,-0.5845,-0.4338
17.214,-0.5849,-0.434
17.244,-0.5841,-0.4344
17.273,-0.5858,-0.4341
17.303,-0.5858,-0.438
17.332,-0.5862,-0.4331
17.362,-0.5849,-0.4336
17.392,-0.5853,-0.4325
17.421,-0.5835,-0.4327
17.451,-0.5856,-0.4352
17.48,-0.5863,-0.4347
17.516,-0.5877,-0.436
17.541,-0.5877,-0.4333
17.569,-0.5868,-0.4347
17.598,-0.5863,-0.4383
17.628,-0.5841,-0.4343
17.657,-0.586,-0.437
17.687,-0.5858,-0.4338
17.718,-0.5857,-0.4346
17.747,-0.5854,-0.4341
17.777,-0.583,-0.4335
17.806,-0.5835,-0.4332
17.836,-0.5852,-0.4351
17.869,-0.5864,-0.4354
17.894,-0.5831,-0.4358
17.924,-0.5857,-0.4365
17.953,-0.5828,-0.4343
17.984,-0.585,-0.4366
18.013,-0.5843,-0.4352
18.042,-0.5854,-0.4335
18.073,-0.5837,-0.4343
18.103,-0.5854,-0.4315
18.134,-0.5851,-0.437
18.162,-0.5837,-0.4339
18.191,-0.5875,-0.4393
18.221,-0.5842,-0.4369
18.251,-0.5904,-0.4321
18.28,-0.5835,-0.4353
18.313,-0.584,-0.4384
18.339,-0.5841,-0.4357
18.368,-0.5824,-0.4346
18.398,-0.5853,-0.4335
18.428,-0.5807,-0.4364
18.458,-0.5829,-0.4355
18.488,-0.5869,-0.4388
18.516,-0.5836,-0.4365
18.547,-0.5846,-0.4325
18.579,-0.5839,-0.4343
18.605,-0.5852,-0.4352
18.636,-0.589,-0.4375
18.666,-0.5845,-0.4363
18.694,-0.5848,-0.438
18.728,-0.5839,-0.4346
18.753,-0.5884,-0.4366
18.783,-0.5822,-0.4368
18.813,-0.5857,-0.4343
18.842,-0.585,-0.4339
18.872,-0.5841,-0.4358
18.902,-0.5837,-0.4326
18.932,-0.5829,-0.4355
18.962,-0.5863,-0.4358
18.991,-0.5868,-0.4355
19.021,-0.5849,-0.4354
19.05,-0.5868,-0.4343
19.079,-0.586,-0.4354
19.109,-0.5857,-0.4347
19.139,-0.5884,-0.4336
19.168,-0.5884,-0.4333
19.198,-0.5854,-0.4366
19.227,-0.5838,-0.4351
19.257,-0.5866,-0.4339
19.287,-0.5849,-0.4371
19.317,-0.5857,-0.4338
19.347,-0.5825,-0.4341
19.376,-0.5869,-0.4331
19.406,-0.5859,-0.4362
19.435,-0.5891,-0.4354
19.464,-0.5876,-0.4343
19.494,-0.5839,-0.4364
19.524,-0.5868,-0.4345
19.555,-0.5868,-0.4379
19.583,-0.5866,-0.4336
19.614,-0.5833,-0.4372
19.642,-0.5858,-0.4351
19.672,-0.586,-0.4354
19.702,-0.584,-0.4374
19.731,-0.5861,-0.4378
19.761,-0.5864,-0.4354
19.79,-0.5873,-0.4343
19.82,-0.5858,-0.4363
19.85,-0.5854,-0.4344
19.888,-0.5849,-0.4347
19.91,-0.5853,-0.4367
19.94,-0.5853,-0.4384
19.969,-0.5877,-0.4349
19.998,-0.5854,-0.4386
20.028,-0.5838,-0.4379
20.057,-0.5869,-0.435
20.087,-0.5848,-0.439
20.116,-0.5843,-0.436
20.146,-0.5862,-0.4382
20.175,-0.5863,-0.4377
20.205,-0.5845,-0.4394
20.236,-0.5884,-0.4373
20.264,-0.5834,-0.4369
20.294,-0.5836,-0.4359
20.324,-0.5832,-0.4372
20.353,-0.5862,-0.4394
20.383,-0.5858,-0.4382
20.412,-0.5855,-0.4363
20.443,-0.5858,-0.4335
20.473,-0.5857,-0.4336
20.501,-0.5867,-0.4382
20.533,-0.5875,-0.4341
20.561,-0.5874,-0.4394
20.59,-0.5811,-0.4383
20.62,-0.5869,-0.4335
20.648,-0.5846,-0.438
20.68,-0.5838,-0.4347
20.709,-0.5855,-0.4362
20.738,-0.5851,-0.436
20.768,-0.5843,-0.4337
20.799,-0.5833,-0.4383
20.827,-0.5865,-0.4367
20.857,-0.5887,-0.4343
20.886,-0.5873,-0.4349
20.916,-0.5844,-0.4372
20.946,-0.5867,-0.4369
20.978,-0.5846,-0.4362
21.005,-0.5836,-0.4382
21.035,-0.5842,-0.4369
21.067,-0.5802,-0.4354
21.095,-0.5844,-0.4345
21.123,-0.5841,-0.4374
21.153,-0.584,-0.4356
21.183,-0.5844,-0.4352
21.212,-0.5854,-0.4351
21.242,-0.5851,-0.4353
21.273,-0.5884,-0.4365
21.301,-0.5839,-0.4338
21.331,-0.5869,-0.4366
21.36,-0.5835,-0.4388
21.39,-0.5846,-0.439
21.419,-0.5867,-0.435
21.448,-0.5885,-0.4363
21.478,-0.5848,-0.4342
21.508,-0.5844,-0.4373
21.537,-0.5872,-0.4363
21.568,-0.5835,-0.4349
21.599,-0.586,-0.4368
21.627,-0.5866,-0.4354
21.657,-0.5827,-0.4387
21.687,-0.5877,-0.4357
21.716,-0.584,-0.4346
21.749,-0.5862,-0.4347
21.775,-0.5864,-0.4381
21.804,-0.5846,-0.4382
21.834,-0.5909,-0.4355
21.863,-0.586,-0.4387
21.893,-0.5854,-0.4356
21.923,-0.5864,-0.4378
21.953,-0.588,-0.4355
21.983,-0.5833,-0.4382
22.012,-0.5865,-0.4383
22.042,-0.5849,-0.4364
22.072,-0.5842,-0.4357
22.101,-0.5884,-0.4366
22.13,-0.5838,-0.4369
22.16,-0.5861,-0.438
22.19,-0.586,-0.4376
22.22,-0.5862,-0.4359
22.249,-0.5832,-0.4376
22.279,-0.5853,-0.4352
22.309,-0.5851,-0.4366
22.338,-0.584,-0.4359
22.367,-0.5869,-0.4361
22.396,-0.5833,-0.4357
22.426,-0.5823,-0.4398
22.457,-0.5877,-0.4374
22.487,-0.5879,-0.4385
22.517,-0.5862,-0.4363
22.546,-0.5808,-0.4376
22.575,-0.5854,-0.4394
22.608,-0.5871,-0.4372
22.634,-0.584,-0.4367
22.664,-0.5871,-0.4348
22.694,-0.5837,-0.437
22.722,-0.587,-0.4358
22.753,-0.5824,-0.435
22.783,-0.5823,-0.436
22.812,-0.5875,-0.4372
22.842,-0.5838,-0.4341
22.871,-0.5882,-0.4353
22.9,-0.5843,-0.4376
22.93,-0.5817,-0.4358
22.959,-0.5833,-0.4382
22.989,-0.5867,-0.4349
23.019,-0.5856,-0.4387
23.049,-0.5866,-0.4351
23.079,-0.587,-0.4375
23.108,-0.5867,-0.4387
23.138,-0.5849,-0.4362
23.168,-0.5832,-0.4377
23.196,-0.584,-0.4365
23.226,-0.5859,-0.4376
23.256,-0.5849,-0.438
23.285,-0.5867,-0.4368
23.315,-0.5871,-0.436
23.345,-0.5832,-0.4373
23.374,-0.5821,-0.4366
23.405,-0.5888,-0.4358
23.434,-0.5848,-0.4396
23.463,-0.5868,-0.4396
23.494,-0.5873,-0.4363
23.522,-0.5875,-0.4359
23.552,-0.5841,-0.436
23.582,-0.5821,-0.4355
23.611,-0.584,-0.438
23.646,-0.5848,-0.4382
23.671,-0.5876,-0.4376
23.7,-0.5861,-0.435
23.73,-0.5835,-0.439
23.759,-0.5883,-0.4377
23.789,-0.584,-0.4366
23.819,-0.5875,-0.4385
23.848,-0.5886,-0.439
23.878,-0.588,-0.4369
23.909,-0.5854,-0.4394
23.938,-0.5874,-0.4376
23.968,-0.5861,-0.4379
23.996,-0.5866,-0.4359
24.027,-0.5866,-0.4374
24.057,-0.5847,-0.4378
24.085,-0.5854,-0.438
24.115,-0.5852,-0.4373
24.145,-0.5862,-0.4394
24.174,-0.5851,-0.4367
24.204,-0.5857,-0.4369
24.233,-0.5849,-0.4398
24.263,-0.5825,-0.4381
24.296,-0.5851,-0.4379
24.322,-0.5871,-0.4399
24.353,-0.5891,-0.4364
24.381,-0.586,-0.4388
24.411,-0.5843,-0.4379
24.441,-0.5881,-0.4401
24.47,-0.5857,-0.4387
24.5,-0.5855,-0.4401
24.53,-0.5846,-0.4342
24.559,-0.5828,-0.4383
24.589,-0.5839,-0.4382
24.618,-0.5848,-0.4378
24.65,-0.5854,-0.4376
24.678,-0.5823,-0.437
24.707,-0.589,-0.4377
24.737,-0.587,-0.4357
24.766,-0.5858,-0.4373
24.796,-0.5842,-0.4391
24.826,-0.5873,-0.4376
24.856,-0.5866,-0.436
24.886,-0.5866,-0.4358
24.915,-0.5851,-0.4394
24.944,-0.5849,-0.4396
24.974,-0.5859,-0.4382
25.003,-0.5859,-0.4365
25.033,-0.5862,-0.4382
25.063,-0.5852,-0.4396
25.092,-0.5857,-0.4379
25.122,-0.585,-0.4374
25.152,-0.5876,-0.438
25.182,-0.586,-0.4401
25.211,-0.5853,-0.439
25.241,-0.5852,-0.4387
25.27,-0.5874,-0.4354
25.3,-0.589,-0.4385
25.329,-0.5871,-0.4371
25.359,-0.5881,-0.4334
25.388,-0.5852,-0.4398
25.42,-0.5874,-0.4361
25.448,-0.5866,-0.4365
25.479,-0.587,-0.4376
25.507,-0.5846,-0.4388
25.537,-0.5891,-0.4383
25.566,-0.5873,-0.4391
25.595,-0.5876,-0.4374
25.624,-0.5862,-0.4358
25.655,-0.5896,-0.4378
25.685,-0.5877,-0.4377
25.716,-0.5867,-0.4374
25.744,-0.5866,-0.4369
25.774,-0.5846,-0.4376
25.803,-0.5849,-0.4398
25.834,-0.5873,-0.4373
25.862,-0.5834,-0.4415
25.891,-0.5858,-0.4374
25.921,-0.5872,-0.4393
25.951,-0.5884,-0.4379
25.98,-0.5863,-0.4386
26.01,-0.5826,-0.4383
26.044,-0.5876,-0.4396
26.075,-0.5885,-0.4365
26.104,-0.5888,-0.4388
26.13,-0.5872,-0.4377
26.159,-0.5879,-0.4379
26.188,-0.59,-0.4367
26.218,-0.5912,-0.438
26.246,-0.5858,-0.4388
26.276,-0.589,-0.4394
26.307,-0.5877,-0.4366
26.336,-0.584,-0.4416
26.365,-0.5885,-0.4389
26.395,-0.5877,-0.439
26.425,-0.5889,-0.4388
26.464,-0.5888,-0.4396
26.485,-0.5899,-0.4376
26.514,-0.5863,-0.4397
26.543,-0.5855,-0.4391
26.572,-0.5862,-0.4382
26.602,-0.5854,-0.4377
26.632,-0.5867,-0.4382
26.661,-0.5871,-0.4366
26.691,-0.5883,-0.4396
26.722,-0.5858,-0.4402
26.751,-0.5871,-0.4394
26.78,-0.5879,-0.4384
26.81,-0.5882,-0.439
26.84,-0.5861,-0.44
26.87,-0.5882,-0.4399
26.904,-0.5888,-0.4368
26.929,-0.5871,-0.4391
26.96,-0.5884,-0.4408
26.998,-0.5844,-0.4367
27.018,-0.5837,-0.4376
27.059,-0.5916,-0.4373
27.076,-0.588,-0.44
27.106,-0.5882,-0.4385
27.135,-0.5858,-0.4342
27.167,-0.5875,-0.4375
27.2,-0.5866,-0.4381
27.229,-0.5907,-0.4399
27.258,-0.5868,-0.437
27.283,-0.5885,-0.439
27.313,-0.5893,-0.4411
27.344,-0.5879,-0.4382
27.372,-0.5904,-0.4377
27.402,-0.5854,-0.4384
27.432,-0.5896,-0.4385
27.461,-0.5876,-0.4402
27.492,-0.5882,-0.438
27.531,-0.5893,-0.4374
27.551,-0.5879,-0.4384
27.581,-0.5882,-0.4426
27.609,-0.5897,-0.4403
27.64,-0.5882,-0.4387
27.669,-0.5862,-0.4394
27.698,-0.5859,-0.4387
27.728,-0.5884,-0.4405
27.757,-0.5871,-0.441
27.787,-0.5871,-0.4398
27.817,-0.5887,-0.4376
27.847,-0.5896,-0.4396
27.876,-0.5899,-0.4398
27.906,-0.5866,-0.4388
27.936,-0.5897,-0.4376
27.965,-0.5874,-0.4387
27.995,-0.5914,-0.4385
28.024,-0.589,-0.4396
28.054,-0.5873,-0.4402
28.085,-0.5866,-0.4374
28.115,-0.5866,-0.4406
28.143,-0.5889,-0.4382
28.172,-0.5847,-0.4382
28.203,-0.587,-0.4411
28.232,-0.5888,-0.4394
28.261,-0.5867,-0.4393
28.291,-0.5885,-0.4374
28.32,-0.5898,-0.4413
28.35,-0.5876,-0.4393
28.38,-0.5866,-0.438
28.409,-0.588,-0.438
28.44,-0.5877,-0.4376
28.468,-0.5865,-0.4416
28.499,-0.5879,-0.4411
28.528,-0.587,-0.4386
28.557,-0.5879,-0.4409
28.587,-0.5877,-0.4385
28.617,-0.5892,-0.4423
28.646,-0.5876,-0.4379
28.676,-0.5901,-0.4391
28.705,-0.5865,-0.4385
28.736,-0.5894,-0.4362
28.765,-0.586,-0.4418
28.795,-0.5859,-0.4377
28.824,-0.5869,-0.4387
28.854,-0.5855,-0.4398
28.883,-0.5863,-0.4401
28.913,-0.5869,-0.4385
28.942,-0.5905,-0.441
28.972,-0.5846,-0.4394
29.002,-0.5869,-0.4397
29.031,-0.5938,-0.4392
29.064,-0.589,-0.4376
29.091,-0.5902,-0.4412
29.12,-0.5869,-0.4387
29.15,-0.587,-0.4388
29.179,-0.5891,-0.4395
29.209,-0.5872,-0.4366
29.238,-0.5895,-0.4393
29.27,-0.5876,-0.4426
29.298,-0.5902,-0.4395
29.327,-0.5859,-0.4394
29.358,-0.5868,-0.4393
29.386,-0.5897,-0.44
29.417,-0.5887,-0.4424
29.446,-0.5866,-0.4394
29.474,-0.587,-0.44
29.504,-0.5878,-0.4387
29.534,-0.5881,-0.4404
29.564,-0.5855,-0.4399
29.594,-0.5876,-0.4409
29.623,-0.5891,-0.4406
29.654,-0.5875,-0.4401
29.684,-0.5899,-0.4401
29.712,-0.5868,-0.4396
29.742,-0.5881,-0.4404
29.771,-0.588,-0.4387
29.801,-0.588,-0.4366
29.831,-0.5885,-0.4401
29.86,-0.5881,-0.4389
29.89,-0.5878,-0.4396
29.919,-0.5867,-0.4424
29.949,-0.5872,-0.4399
29.979,-0.5873,-0.4421
30.008,-0.5892,-0.4379
30.038,-0.5885,-0.4405
30.067,-0.5869,-0.4401
30.097,-0.5891,-0.4393
30.127,-0.586,-0.4415
30.156,-0.5896,-0.4394
30.186,-0.5885,-0.4414
30.219,-0.5856,-0.4378
30.244,-0.5886,-0.4389
30.276,-0.5873,-0.4421
30.305,-0.5879,-0.4382
30.335,-0.5868,-0.4402
30.364,-0.5896,-0.4412
30.393,-0.589,-0.443
30.423,-0.5857,-0.4385
30.452,-0.5861,-0.4391
30.482,-0.5896,-0.4378
30.514,-0.5867,-0.4406
30.542,-0.5865,-0.4407
30.576,-0.5876,-0.4388
30.603,-0.5853,-0.4393
30.629,-0.589,-0.4412
30.659,-0.5863,-0.441
30.688,-0.5864,-0.4386
30.718,-0.5868,-0.4382
30.75,-0.5898,-0.4408
30.778,-0.5848,-0.4408
30.808,-0.5862,-0.4404
30.837,-0.5881,-0.4394
30.866,-0.5852,-0.4421
30.898,-0.5854,-0.4379
30.925,-0.5889,-0.4391
30.955,-0.5883,-0.4399
30.984,-0.5873,-0.4413
31.014,-0.5905,-0.4394
31.044,-0.5862,-0.4424
31.075,-0.5863,-0.438
31.104,-0.5881,-0.442
31.134,-0.5853,-0.439
31.168,-0.5855,-0.4399
31.193,-0.5895,-0.4399
31.222,-0.5852,-0.4393
31.251,-0.5885,-0.4387
31.282,-0.5904,-0.4372
31.31,-0.5877,-0.4403
31.341,-0.585,-0.4424
31.37,-0.5892,-0.4405
31.4,-0.5856,-0.4399
31.43,-0.5873,-0.4429
31.459,-0.586,-0.4411
31.489,-0.5857,-0.4393
31.52,-0.5883,-0.442
31.548,-0.5851,-0.4409
31.577,-0.5877,-0.4406
31.606,-0.5877,-0.4407
31.637,-0.5907,-0.4388
31.666,-0.5895,-0.4415
31.695,-0.5862,-0.4405
31.725,-0.5874,-0.4398
31.756,-0.5892,-0.4424
31.785,-0.5872,-0.4383
31.815,-0.5869,-0.4393
31.843,-0.5869,-0.4411
31.876,-0.585,-0.4393
31.903,-0.5871,-0.4394
31.937,-0.5892,-0.4398
31.962,-0.5863,-0.4389
31.991,-0.586,-0.4398
32.021,-0.5847,-0.4408
32.052,-0.5843,-0.4432
32.08,-0.5861,-0.4394
32.11,-0.5869,-0.4389
32.141,-0.5896,-0.4432
32.169,-0.5865,-0.4413
32.199,-0.5882,-0.4391
32.228,-0.5858,-0.4416
32.258,-0.5887,-0.4413
32.288,-0.5861,-0.4386
32.317,-0.5861,-0.4423
32.347,-0.5874,-0.4421
32.377,-0.5858,-0.4402
32.407,-0.5877,-0.4399
32.438,-0.5895,-0.4416
32.465,-0.5843,-0.4412
32.495,-0.5883,-0.441
32.534,-0.589,-0.4416
32.554,-0.589,-0.4422
32.585,-0.5893,-0.4427
32.613,-0.5867,-0.4396
32.643,-0.5891,-0.4416
32.673,-0.5877,-0.4413
32.703,-0.5882,-0.4407
32.733,-0.5869,-0.4417
32.761,-0.584,-0.4445
32.791,-0.5876,-0.4441
32.821,-0.5878,-0.4397
32.851,-0.589,-0.4385
32.881,-0.5852,-0.4435
32.91,-0.5869,-0.4429
32.939,-0.5868,-0.4413
32.971,-0.5862,-0.4405
32.998,-0.5868,-0.4457
33.028,-0.5825,-0.4409
33.058,-0.589,-0.4403
33.087,-0.5904,-0.4423
33.117,-0.5869,-0.4418
33.146,-0.5863,-0.4407
33.176,-0.5832,-0.442
33.206,-0.5888,-0.4401
33.235,-0.5876,-0.4414
33.272,-0.5897,-0.441
33.296,-0.5858,-0.4411
33.324,-0.5886,-0.4428
33.354,-0.5846,-0.4408
33.382,-0.5854,-0.4424
33.414,-0.5901,-0.443
33.443,-0.5855,-0.4433
33.472,-0.5873,-0.4407
33.503,-0.5858,-0.4387
33.533,-0.586,-0.4424
33.562,-0.5884,-0.4423
33.591,-0.5886,-0.4421
33.62,-0.5871,-0.443
33.65,-0.5852,-0.4421
33.68,-0.5862,-0.4422
33.71,-0.584,-0.4437
33.739,-0.5856,-0.4415
33.769,-0.584,-0.4436
33.798,-0.5842,-0.4432
33.828,-0.5855,-0.4419
33.857,-0.5843,-0.4402
33.889,-0.5851,-0.4429
33.917,-0.588,-0.4414
33.946,-0.5848,-0.44
33.976,-0.5874,-0.4421
34.006,-0.5853,-0.4455
34.035,-0.5847,-0.4441
34.065,-0.5831,-0.4445
34.101,-0.5851,-0.4446
34.124,-0.5845,-0.4416
34.154,-0.5885,-0.4412
34.182,-0.5864,-0.4437
34.212,-0.5832,-0.4433
34.242,-0.5854,-0.4442
34.271,-0.5849,-0.4433
34.302,-0.5833,-0.4436
34.332,-0.5855,-0.4418
34.361,-0.588,-0.4402
34.391,-0.5895,-0.4437
34.42,-0.5843,-0.4432
34.451,-0.5844,-0.4444
34.48,-0.5862,-0.4416
34.508,-0.5862,-0.4498
34.538,-0.5864,-0.469
34.569,-0.5862,-0.4458
34.599,-0.5872,-0.4444
34.628,-0.5841,-0.4458
34.658,-0.5868,-0.4449
34.687,-0.5871,-0.4434
34.717,-0.5833,-0.4448
34.747,-0.5855,-0.4543
34.776,-0.5859,-0.4687
34.807,-0.586,-0.5
34.834,-0.5877,-0.5339
34.864,-0.5864,-0.556
34.895,-0.5882,-0.5096
34.924,-0.5877,-0.4939
34.954,-0.5841,-0.4768
34.984,-0.5877,-0.4711
35.013,-0.5883,-0.4742
35.043,-0.5871,-0.4946
35.073,-0.5816,-0.5318
35.101,-0.5836,-0.5399
35.132,-0.5848,-0.5362
35.16,-0.5861,-0.5231
35.191,-0.5854,-0.5075
35.221,-0.5852,-0.5129
35.252,-0.5858,-0.498
35.289,-0.5855,-0.4827
35.31,-0.5884,-0.4756
35.339,-0.5854,-0.4767
35.369,-0.5846,-0.4691
35.398,-0.5826,-0.4575
35.427,-0.5885,-0.4496
35.457,-0.5865,-0.4434
35.487,-0.5857,-0.4432
35.517,-0.5893,-0.4471
35.547,-0.5871,-0.4433
35.575,-0.5882,-0.4429
35.606,-0.5865,-0.4454
35.635,-0.5843,-0.4466
35.665,-0.5893,-0.4468
35.694,-0.5859,-0.4467
35.723,-0.5844,-0.4431
35.753,-0.5893,-0.4459
35.783,-0.5857,-0.4455
35.812,-0.589,-0.4443
35.842,-0.5865,-0.4405
35.872,-0.5877,-0.4393
35.902,-0.5913,-0.4416
35.932,-0.5874,-0.4393
35.96,-0.5868,-0.439
35.99,-0.5873,-0.4383
36.02,-0.5882,-0.4369
36.05,-0.5884,-0.4394
36.08,-0.5905,-0.4374
36.11,-0.5893,-0.4354
36.138,-0.5902,-0.4365
36.168,-0.5865,-0.4379
36.198,-0.5913,-0.437
36.227,-0.5858,-0.4371
36.257,-0.5903,-0.4393
36.287,-0.5875,-0.4363
36.316,-0.5871,-0.4384
36.346,-0.5887,-0.4369
36.375,-0.5862,-0.4363
36.409,-0.5869,-0.4346
36.435,-0.5854,-0.4306
36.464,-0.5887,-0.4358
36.494,-0.5864,-0.4335
36.525,-0.5877,-0.4282
36.553,-0.5907,-0.4196
36.583,-0.5904,-0.407
36.613,-0.589,-0.4106
36.643,-0.5884,-0.4161
36.672,-0.5891,-0.4182
36.705,-0.5893,-0.4203
36.732,-0.5868,-0.4177
36.761,-0.5885,-0.4217
36.791,-0.5858,-0.4232
36.822,-0.5875,-0.4086
36.85,-0.5877,-0.386
36.879,-0.5885,-0.3704
36.909,-0.5873,-0.3703
36.938,-0.5879,-0.3811
36.968,-0.5899,-0.3876
36.998,-0.5909,-0.3918
37.027,-0.5858,-0.3994
37.063,-0.5833,-0.4209
37.088,-0.5852,-0.4222
37.116,-0.5877,-0.4384
37.146,-0.5854,-0.438
37.175,-0.5889,-0.4402
37.205,-0.589,-0.44
37.235,-0.5897,-0.443
37.266,-0.5847,-0.4362
37.294,-0.5866,-0.439
37.324,-0.591,-0.4366
37.353,-0.5841,-0.4371
37.384,-0.5875,-0.4304
37.412,-0.5858,-0.4303
37.442,-0.5884,-0.431
37.472,-0.5888,-0.4339
37.501,-0.5887,-0.4322
37.531,-0.5879,-0.4339
37.561,-0.5885,-0.4327
37.59,-0.5859,-0.4319
37.621,-0.5904,-0.4298
37.649,-0.5868,-0.433
37.679,-0.5896,-0.4302
37.711,-0.5902,-0.4315
37.738,-0.5873,-0.4326
37.768,-0.5887,-0.434
37.797,-0.5847,-0.4327
37.827,-0.5904,-0.4325
37.857,-0.5849,-0.4294
37.886,-0.5896,-0.4272
37.916,-0.5897,-0.4295
37.95,-0.5901,-0.4308
37.975,-0.5869,-0.4322
38.007,-0.5902,-0.4321
38.034,-0.5872,-0.4307
38.065,-0.5879,-0.4304
38.094,-0.5879,-0.4281
38.123,-0.5939,-0.4321
38.153,-0.588,-0.4311
38.182,-0.5891,-0.4308
38.212,-0.5879,-0.429
38.242,-0.5914,-0.4305
38.271,-0.5894,-0.4292
38.301,-0.5858,-0.4304
38.331,-0.5894,-0.4339
38.36,-0.5873,-0.4344
38.39,-0.5873,-0.4332
38.419,-0.5873,-0.433
38.449,-0.5878,-0.4401
38.479,-0.5885,-0.4413
38.508,-0.586,-0.4416
38.538,-0.59,-0.4363
38.568,-0.5906,-0.4407
38.597,-0.5874,-0.4347
38.627,-0.5879,-0.4314
38.656,-0.5888,-0.4324
38.685,-0.5892,-0.4333
38.715,-0.5872,-0.4307
38.745,-0.586,-0.4326
38.775,-0.588,-0.4338
38.805,-0.5865,-0.4329
38.834,-0.5878,-0.4321
38.864,-0.588,-0.4308
38.893,-0.5878,-0.431
38.923,-0.5884,-0.4329
38.953,-0.588,-0.4327
38.982,-0.5868,-0.4339
39.013,-0.5893,-0.4347
39.046,-0.5889,-0.4388
39.073,-0.5853,-0.4393
39.101,-0.5875,-0.4377
39.134,-0.586,-0.4388
39.16,-0.5898,-0.4368
39.191,-0.5872,-0.4354
39.219,-0.5882,-0.4363
39.249,-0.5836,-0.4338
39.279,-0.5894,-0.4348
39.307,-0.5857,-0.4491
39.338,-0.5886,-0.4551
39.368,-0.589,-0.4546
39.401,-0.5888,-0.4598
39.431,-0.5887,-0.4692
39.456,-0.591,-0.4757
39.486,-0.5874,-0.4755
39.516,-0.5891,-0.4813
39.545,-0.5871,-0.4856
39.575,-0.5869,-0.4752
39.604,-0.5844,-0.4699
39.634,-0.5849,-0.4532
39.664,-0.5849,-0.4512
39.693,-0.5889,-0.4568
39.729,-0.5901,-0.4697
39.751,-0.5851,-0.4748
39.782,-0.5854,-0.4822
39.812,-0.5884,-0.4827
39.84,-0.5889,-0.4882
39.87,-0.5837,-0.477
39.899,-0.5895,-0.4586
39.93,-0.5869,-0.4489
39.959,-0.5881,-0.4419
39.988,-0.5873,-0.438
40.019,-0.5868,-0.4382
40.048,-0.5843,-0.4408
40.078,-0.5876,-0.4361
40.108,-0.5882,-0.4332
40.136,-0.5879,-0.4309
40.166,-0.5877,-0.4322
40.195,-0.5897,-0.4333
40.228,-0.5866,-0.4354
40.255,-0.5865,-0.435
40.288,-0.5897,-0.4365
40.314,-0.5848,-0.4405
40.343,-0.5851,-0.4353
40.374,-0.5876,-0.431
40.403,-0.5895,-0.4316
40.432,-0.5876,-0.4286
40.462,-0.5855,-0.4294
40.492,-0.5877,-0.4294
40.524,-0.5901,-0.428
40.552,-0.5896,-0.4328
40.581,-0.5859,-0.4311
40.616,-0.5907,-0.4308
40.641,-0.5884,-0.4295
40.673,-0.5892,-0.4286
40.699,-0.5877,-0.4286
40.732,-0.5892,-0.4295
40.758,-0.5884,-0.4316
40.788,-0.5876,-0.4297
40.819,-0.5904,-0.4336
40.849,-0.5896,-0.4326
40.877,-0.5921,-0.432
40.908,-0.5867,-0.4319
40.936,-0.591,-0.4303
40.968,-0.5877,-0.4313
40.995,-0.5855,-0.4336
41.025,-0.5887,-0.4309
41.057,-0.5877,-0.4345
41.084,-0.5891,-0.4357
41.113,-0.5897,-0.4424
41.143,-0.5901,-0.4617
41.173,-0.589,-0.4672
41.202,-0.5873,-0.4684
41.232,-0.588,-0.4744
41.264,-0.5881,-0.4786
41.292,-0.586,-0.4831
41.321,-0.5871,-0.4988
41.351,-0.5909,-0.5212
41.38,-0.5857,-0.5324
41.409,-0.5882,-0.533
41.439,-0.5896,-0.5399
41.469,-0.5891,-0.5553
41.5,-0.5891,-0.5702
41.528,-0.5883,-0.5951
41.558,-0.5897,-0.6215
41.587,-0.5887,-0.6307
41.617,-0.5859,-0.667
41.646,-0.5891,-0.689
41.676,-0.5892,-0.6866
41.708,-0.5912,-0.6967
41.743,-0.589,-0.6991
41.765,-0.5898,-0.7069
41.794,-0.5858,-0.7126
41.827,-0.5863,-0.7132
41.854,-0.5865,-0.7225
41.883,-0.5893,-0.722
41.913,-0.5855,-0.7117
41.943,-0.5886,-0.7097
41.972,-0.5873,-0.6952
42.002,-0.587,-0.6908
42.032,-0.5854,-0.694
42.061,-0.5877,-0.6909
42.091,-0.5899,-0.6915
42.12,-0.5893,-0.7101
42.151,-0.5848,-0.7172
42.18,-0.589,-0.7272
42.208,-0.5899,-0.7263
42.238,-0.5858,-0.7183
42.268,-0.5877,-0.7175
42.298,-0.5884,-0.7093
42.328,-0.5869,-0.7132
42.357,-0.5875,-0.7184
42.387,-0.5872,-0.7169
42.417,-0.587,-0.7062
42.447,-0.5881,-0.7017
42.477,-0.5892,-0.7038
42.505,-0.5869,-0.7165
42.535,-0.5912,-0.7267
42.565,-0.588,-0.7289
42.595,-0.5889,-0.7368
42.624,-0.5868,-0.7364
42.653,-0.5887,-0.7357
42.683,-0.5871,-0.7341
42.713,-0.5896,-0.737
42.742,-0.5902,-0.7372
42.772,-0.5877,-0.737
42.801,-0.5872,-0.7392
42.83,-0.5892,-0.7395
42.861,-0.586,-0.741
42.892,-0.5901,-0.7382
42.921,-0.5883,-0.7439
42.951,-0.5915,-0.7419
42.982,-0.5884,-0.7424
43.009,-0.5887,-0.741
43.039,-0.5869,-0.7449
43.068,-0.5876,-0.7452
43.098,-0.5874,-0.7458
43.13,-0.5844,-0.7461
43.157,-0.5869,-0.7426
43.191,-0.5869,-0.7409
43.216,-0.5899,-0.7437
43.246,-0.5888,-0.7487
43.275,-0.5868,-0.7556
43.312,-0.5859,-0.7574
43.335,-0.5862,-0.7559
43.365,-0.5885,-0.7549
43.396,-0.5914,-0.7509
43.424,-0.5898,-0.7508
43.452,-0.5873,-0.7481
43.483,-0.589,-0.7466
43.513,-0.5896,-0.7437
43.542,-0.5875,-0.7432
43.572,-0.5854,-0.7417
43.602,-0.5876,-0.7422
43.631,-0.5878,-0.7384
43.662,-0.5846,-0.742
43.691,-0.5889,-0.7351
43.72,-0.5874,-0.7398
43.75,-0.583,-0.7371
43.779,-0.5888,-0.7354
43.808,-0.5878,-0.735
43.838,-0.5911,-0.7333
43.869,-0.5875,-0.7294
43.9,-0.588,-0.73
43.929,-0.5907,-0.7294
43.957,-0.5898,-0.7266
43.987,-0.586,-0.7298
44.016,-0.5842,-0.7317
44.045,-0.5902,-0.7391
44.076,-0.5939,-0.7403
44.105,-0.5901,-0.7434
44.135,-0.5863,-0.7416
44.164,-0.5869,-0.7435
44.193,-0.5847,-0.7432
44.224,-0.5884,-0.7361
44.254,-0.5879,-0.7374
44.282,-0.5898,-0.7335
44.312,-0.5871,-0.7291
44.341,-0.5869,-0.7308
44.372,-0.5884,-0.73
44.403,-0.5862,-0.7319
44.433,-0.5863,-0.7274
44.462,-0.5857,-0.7266
44.49,-0.5892,-0.7239
44.52,-0.5902,-0.7255
44.549,-0.5879,-0.7267
44.579,-0.5896,-0.7252
44.608,-0.589,-0.7233
44.638,-0.5856,-0.7192
44.669,-0.5873,-0.7227
44.698,-0.5883,-0.7233
44.737,-0.5842,-0.7176
44.757,-0.5868,-0.7204
44.787,-0.5841,-0.7247
44.817,-0.5893,-0.7266
44.845,-0.5891,-0.7284
44.875,-0.5848,-0.7279
44.905,-0.5891,-0.7295
44.934,-0.5862,-0.73
44.964,-0.5868,-0.7279
44.994,-0.5867,-0.7226
45.023,-0.5888,-0.7194
45.063,-0.5835,-0.717
45.082,-0.5863,-0.7187
45.112,-0.5904,-0.7178
45.142,-0.5829,-0.715
45.171,-0.5878,-0.7153
45.201,-0.5862,-0.7144
45.231,-0.5866,-0.7092
45.261,-0.5865,-0.7081
45.29,-0.5835,-0.7073
45.32,-0.5862,-0.7092
45.35,-0.5889,-0.7047
45.379,-0.5888,-0.7044
45.41,-0.5884,-0.7021
45.438,-0.5865,-0.7043
45.468,-0.591,-0.6995
45.497,-0.5888,-0.6998
45.527,-0.5866,-0.6992
45.558,-0.5888,-0.6967
45.587,-0.5906,-0.6964
45.616,-0.5884,-0.6987
45.646,-0.5889,-0.7028
45.675,-0.5872,-0.7045
45.706,-0.5867,-0.7068
45.734,-0.5893,-0.7053
45.764,-0.5882,-0.702
45.794,-0.5858,-0.6973
45.823,-0.5865,-0.694
45.854,-0.5896,-0.6941
45.882,-0.589,-0.6909
45.912,-0.5867,-0.6897
45.942,-0.5882,-0.6893
45.972,-0.5878,-0.6871
46.001,-0.5904,-0.6873
46.031,-0.5863,-0.6832
46.06,-0.5855,-0.6827
46.09,-0.588,-0.6849
46.119,-0.5899,-0.6826
46.149,-0.5884,-0.6821
46.179,-0.5899,-0.684
46.208,-0.5871,-0.6836
46.244,-0.5846,-0.6813
46.268,-0.5912,-0.6775
46.297,-0.5856,-0.6818
46.328,-0.5857,-0.68
46.356,-0.5912,-0.6787
46.386,-0.5877,-0.6803
46.416,-0.5851,-0.6843
46.445,-0.5892,-0.6896
46.475,-0.5873,-0.6918
46.507,-0.5853,-0.6944
46.534,-0.5877,-0.694
46.564,-0.5859,-0.6892
46.593,-0.59,-0.684
46.624,-0.5873,-0.6838
46.653,-0.5883,-0.6808
46.682,-0.5876,-0.6799
46.712,-0.5899,-0.6833
46.742,-0.5888,-0.678
46.771,-0.5876,-0.6787
46.801,-0.588,-0.6774
46.83,-0.592,-0.6775
46.86,-0.5852,-0.6747
46.89,-0.5904,-0.6747
46.919,-0.5874,-0.6706
46.949,-0.5872,-0.6713
46.979,-0.5865,-0.6728
47.008,-0.5871,-0.6707
47.039,-0.5887,-0.6718
47.072,-0.5869,-0.6714
47.101,-0.5902,-0.6678
47.127,-0.5874,-0.6667
47.157,-0.5879,-0.668
47.186,-0.5885,-0.6646
47.216,-0.5878,-0.6683
47.245,-0.5947,-0.6755
47.274,-0.5902,-0.6797
47.305,-0.5877,-0.6807
47.336,-0.5884,-0.6764
47.368,-0.5905,-0.6763
47.394,-0.591,-0.6727
47.423,-0.5907,-0.6709
47.453,-0.5905,-0.6702
47.484,-0.5877,-0.6662
47.512,-0.588,-0.6659
47.542,-0.587,-0.6678
47.57,-0.586,-0.6667
47.6,-0.5885,-0.668
47.631,-0.5895,-0.6645
47.663,-0.5888,-0.6611
47.691,-0.59,-0.661
47.72,-0.5871,-0.6581
47.756,-0.5909,-0.6568
47.78,-0.5916,-0.6589
47.809,-0.5924,-0.6559
47.838,-0.5935,-0.6515
47.868,-0.5918,-0.6541
47.897,-0.586,-0.6529
47.927,-0.591,-0.6528
47.957,-0.5915,-0.6532
47.986,-0.5888,-0.6509
48.016,-0.5904,-0.653
48.045,-0.5891,-0.6554
48.077,-0.5874,-0.6598
48.107,-0.5918,-0.6656
48.133,-0.5923,-0.6612
48.163,-0.5871,-0.6605
48.193,-0.5915,-0.6608
48.224,-0.5846,-0.6576
48.253,-0.5903,-0.6548
48.283,-0.5891,-0.652
48.311,-0.5857,-0.6526
48.342,-0.5896,-0.6511
48.371,-0.5904,-0.652
48.401,-0.588,-0.6446
48.43,-0.5899,-0.648
48.459,-0.5877,-0.6443
48.489,-0.5915,-0.6435
48.519,-0.5924,-0.647
48.548,-0.5913,-0.6417
48.579,-0.5938,-0.6437
48.616,-0.5922,-0.6418
48.638,-0.5888,-0.6385
48.667,-0.5876,-0.6398
48.697,-0.5924,-0.6412
48.726,-0.5908,-0.6368
48.755,-0.5918,-0.6358
48.785,-0.5913,-0.6361
48.816,-0.589,-0.6315
48.845,-0.5909,-0.6356
48.875,-0.5927,-0.6376
48.904,-0.5907,-0.6439
48.934,-0.5936,-0.6456
48.965,-0.5912,-0.6471
48.992,-0.5919,-0.6447
49.022,-0.5894,-0.6437
49.052,-0.5877,-0.6392
49.081,-0.5918,-0.6353
49.116,-0.5918,-0.6369
49.14,-0.5913,-0.6367
49.171,-0.5942,-0.6342
49.2,-0.5902,-0.6341
49.229,-0.5921,-0.6354
49.26,-0.5911,-0.6308
49.289,-0.5932,-0.6326
49.318,-0.5903,-0.6274
49.348,-0.5935,-0.6274
49.377,-0.5898,-0.6269
49.408,-0.5907,-0.6269
49.439,-0.5981,-0.6277
49.466,-0.5926,-0.6268
49.504,-0.5957,-0.6254
49.527,-0.5945,-0.6229
49.556,-0.5909,-0.6252
49.586,-0.5913,-0.6235
49.614,-0.5901,-0.6219
49.644,-0.5961,-0.6233
49.674,-0.5915,-0.6226
49.704,-0.5962,-0.6278
49.734,-0.592,-0.6333
49.765,-0.5947,-0.6362
49.792,-0.5906,-0.6382
49.822,-0.5951,-0.6354
49.852,-0.5891,-0.6312
49.882,-0.5942,-0.6284
49.91,-0.5971,-0.6261
49.94,-0.5978,-0.626
49.97,-0.5921,-0.6217
50,-0.5946,-0.6222
50.031,-0.5932,-0.6235
50.059,-0.5949,-0.6263
50.088,-0.5941,-0.6213
50.118,-0.594,-0.6199
50.148,-0.5933,-0.6152
50.178,-0.5947,-0.6191
50.207,-0.5963,-0.6174
50.236,-0.595,-0.6139
50.266,-0.5978,-0.6149
50.296,-0.5916,-0.6158
50.326,-0.5916,-0.6105
50.355,-0.5927,-0.6156
50.384,-0.5974,-0.6107
50.414,-0.5935,-0.6111
50.444,-0.5964,-0.6098
50.474,-0.5968,-0.6097
50.504,-0.5981,-0.6098
50.534,-0.5969,-0.6174
50.562,-0.5952,-0.6227
50.592,-0.5951,-0.6255
50.621,-0.5946,-0.6251
50.651,-0.5956,-0.6249
50.684,-0.5943,-0.6244
50.71,-0.5923,-0.6226
50.74,-0.5938,-0.618
50.77,-0.594,-0.6202
50.799,-0.5967,-0.6168
50.829,-0.5957,-0.6139
50.858,-0.596,-0.6172
50.888,-0.595,-0.616
50.918,-0.5924,-0.612
50.947,-0.5884,-0.61
50.977,-0.5938,-0.605
51.006,-0.5959,-0.605
51.037,-0.5945,-0.6007
51.066,-0.5927,-0.6026
51.095,-0.592,-0.6011
51.125,-0.5951,-0.6017
51.155,-0.5949,-0.6014
51.184,-0.5928,-0.6003
51.214,-0.5955,-0.6019
51.243,-0.5929,-0.598
51.273,-0.5947,-0.5955
51.303,-0.5927,-0.601
51.332,-0.5963,-0.6037
51.362,-0.5949,-0.6099
51.392,-0.5958,-0.6128
51.421,-0.5987,-0.6131
51.451,-0.5932,-0.6144
51.484,-0.5929,-0.61
51.51,-0.5939,-0.6091
51.54,-0.5935,-0.6053
51.572,-0.5945,-0.6057
51.599,-0.5921,-0.6047
51.629,-0.5909,-0.6013
51.659,-0.5965,-0.6041
51.688,-0.5953,-0.6023
51.717,-0.5937,-0.6013
51.747,-0.5939,-0.6005
51.777,-0.5962,-0.5942
51.806,-0.5946,-0.5931
51.836,-0.5947,-0.5918
51.865,-0.5921,-0.5878
51.895,-0.5932,-0.5889
51.925,-0.5927,-0.5897
51.954,-0.5977,-0.584
51.984,-0.5935,-0.5821
52.012,-0.5927,-0.5847
52.042,-0.5952,-0.5812
52.077,-0.5934,-0.5816
52.102,-0.597,-0.5817
52.132,-0.595,-0.5845
52.162,-0.5932,-0.5897
52.191,-0.5901,-0.5954
52.221,-0.5973,-0.5977
52.25,-0.592,-0.5983
52.28,-0.5956,-0.5966
52.31,-0.5945,-0.5948
52.339,-0.5943,-0.5908
52.371,-0.594,-0.5898
52.399,-0.5942,-0.5875
52.429,-0.5955,-0.5889
52.458,-0.5952,-0.589
52.487,-0.59,-0.5887
52.517,-0.5925,-0.5833
52.546,-0.595,-0.5821
52.575,-0.5933,-0.5829
52.606,-0.5931,-0.5844
52.636,-0.5955,-0.5816
52.665,-0.5912,-0.5809
52.695,-0.5941,-0.5804
52.732,-0.5933,-0.5766
52.754,-0.5944,-0.5738
52.784,-0.5926,-0.5751
52.814,-0.5937,-0.5729
52.843,-0.5942,-0.5732
52.873,-0.5916,-0.5723
52.902,-0.5915,-0.5745
52.933,-0.5936,-0.5779
52.96,-0.5954,-0.5832
52.991,-0.5905,-0.5889
53.021,-0.5954,-0.591
53.055,-0.5913,-0.5879
53.08,-0.5942,-0.5885
53.111,-0.5914,-0.5873
53.139,-0.5934,-0.5834
53.168,-0.592,-0.5796
53.198,-0.5924,-0.5821
53.227,-0.5895,-0.5784
53.259,-0.5929,-0.5864
53.287,-0.5915,-0.5863
53.316,-0.5935,-0.5803
53.347,-0.5956,-0.576
53.376,-0.5933,-0.5738
53.406,-0.5918,-0.5722
53.435,-0.5928,-0.5691
53.464,-0.5925,-0.566
53.494,-0.5929,-0.567
53.523,-0.5918,-0.5679
53.555,-0.5941,-0.5659
53.583,-0.5904,-0.5696
53.612,-0.5937,-0.5624
53.644,-0.5941,-0.5665
53.671,-0.5928,-0.5612
53.701,-0.5927,-0.5637
53.731,-0.5909,-0.5645
53.76,-0.594,-0.5659
53.791,-0.5886,-0.5702
53.82,-0.5912,-0.5762
53.85,-0.5904,-0.5787
53.879,-0.5923,-0.576
53.909,-0.5932,-0.5785
53.938,-0.5893,-0.5814
53.969,-0.5912,-0.5767
53.997,-0.5929,-0.5706
54.027,-0.5905,-0.569
54.057,-0.5924,-0.5702
54.086,-0.592,-0.5689
54.116,-0.5926,-0.5681
54.146,-0.5958,-0.5676
54.175,-0.5916,-0.568
54.205,-0.5934,-0.5661
54.235,-0.5937,-0.5639
54.265,-0.5932,-0.5618
54.294,-0.5927,-0.566
54.323,-0.5966,-0.5645
54.353,-0.5924,-0.5635
54.383,-0.5939,-0.5644
54.412,-0.5909,-0.5626
54.449,-0.5925,-0.5623
54.472,-0.5923,-0.5589
54.502,-0.5911,-0.5616
54.535,-0.5938,-0.559
54.561,-0.5934,-0.5595
54.59,-0.592,-0.5665
54.62,-0.5915,-0.5753
54.649,-0.5931,-0.5745
54.679,-0.5941,-0.5778
54.708,-0.5942,-0.5785
54.74,-0.5886,-0.5761
54.771,-0.5945,-0.5735
54.799,-0.5916,-0.5734
54.837,-0.5905,-0.57
54.856,-0.5961,-0.5693
54.887,-0.5945,-0.571
54.916,-0.5914,-0.566
54.945,-0.5927,-0.569
54.976,-0.5924,-0.5646
55.005,-0.5935,-0.5602
55.034,-0.5897,-0.5615
55.064,-0.5933,-0.559
55.096,-0.5937,-0.5582
55.123,-0.5912,-0.5585
55.153,-0.5921,-0.5565
55.182,-0.5934,-0.5565
55.213,-0.5922,-0.5559
55.242,-0.591,-0.5501
55.272,-0.5891,-0.5503
55.301,-0.5901,-0.555
55.33,-0.5942,-0.5505
55.361,-0.592,-0.5489
55.39,-0.5911,-0.5488
55.419,-0.5904,-0.5572
55.449,-0.5934,-0.5637
55.478,-0.5907,-0.5692
55.508,-0.5932,-0.5683
55.537,-0.5918,-0.5681
55.567,-0.5936,-0.5684
55.596,-0.592,-0.5604
55.626,-0.5939,-0.5637
55.658,-0.5964,-0.5578
55.691,-0.592,-0.5593
55.715,-0.5925,-0.5594
55.745,-0.5916,-0.5577
55.775,-0.5929,-0.5593
55.804,-0.5957,-0.558
55.834,-0.5918,-0.5586
55.863,-0.5909,-0.5547
55.893,-0.5915,-0.5538
55.928,-0.5912,-0.5533
55.952,-0.5925,-0.5514
55.982,-0.5911,-0.5515
56.011,-0.5909,-0.5484
56.041,-0.5884,-0.5521
56.071,-0.5927,-0.5522
56.1,-0.592,-0.5518
56.13,-0.5925,-0.5489
56.16,-0.5899,-0.5458
56.189,-0.5912,-0.5458
56.219,-0.5928,-0.5521
56.249,-0.5895,-0.5568
56.278,-0.5864,-0.5639
56.313,-0.5911,-0.5626
56.337,-0.5926,-0.5632
56.367,-0.5885,-0.5625
56.397,-0.5921,-0.5582
56.426,-0.5914,-0.5544
56.456,-0.5907,-0.5538
56.486,-0.5935,-0.5531
56.515,-0.5923,-0.5507
56.545,-0.5956,-0.5502
56.574,-0.5899,-0.5531
56.604,-0.5906,-0.5502
56.634,-0.5917,-0.5474
56.663,-0.5901,-0.5455
56.693,-0.5891,-0.5433
56.723,-0.5912,-0.5428
56.751,-0.5924,-0.5418
56.781,-0.5913,-0.5403
56.812,-0.5942,-0.5392
56.843,-0.5912,-0.5363
56.871,-0.5918,-0.5367
56.901,-0.5916,-0.5364
56.93,-0.5957,-0.5352
56.96,-0.5926,-0.532
56.988,-0.5938,-0.5352
57.018,-0.5923,-0.5369
57.048,-0.5885,-0.536
57.077,-0.5934,-0.5444
57.108,-0.5916,-0.5505
57.138,-0.5925,-0.5562
57.167,-0.5879,-0.5552
57.197,-0.5905,-0.5489
57.226,-0.5908,-0.5497
57.257,-0.5894,-0.5459
57.286,-0.5919,-0.5477
57.314,-0.5873,-0.5432
57.344,-0.5918,-0.5463
57.373,-0.5895,-0.5432
57.403,-0.589,-0.543
57.433,-0.5915,-0.5433
57.462,-0.5911,-0.5392
57.492,-0.5899,-0.542
57.524,-0.5897,-0.5431
57.555,-0.5903,-0.5405
57.581,-0.5924,-0.5344
57.611,-0.5907,-0.535
57.64,-0.5898,-0.5334
57.67,-0.5914,-0.5349
57.7,-0.5923,-0.5304
57.732,-0.5912,-0.5298
57.76,-0.5946,-0.5314
57.788,-0.5918,-0.5312
57.819,-0.5912,-0.5285
57.851,-0.5906,-0.5284
57.877,-0.5901,-0.5351
57.907,-0.5934,-0.542
57.936,-0.5891,-0.5475
57.966,-0.592,-0.5475
57.998,-0.5909,-0.5485
58.028,-0.5912,-0.5437
58.056,-0.5936,-0.5449
58.085,-0.592,-0.5419
58.114,-0.5912,-0.5399
58.145,-0.5882,-0.5353
58.174,-0.5885,-0.537
58.203,-0.5906,-0.5361
58.233,-0.5929,-0.5312
58.262,-0.5918,-0.5356
58.293,-0.5945,-0.5325
58.322,-0.5929,-0.5312
58.352,-0.5907,-0.53
58.381,-0.5924,-0.5311
58.411,-0.596,-0.5297
58.441,-0.5886,-0.5268
58.472,-0.5912,-0.527
58.499,-0.588,-0.5229
58.529,-0.5882,-0.5221
58.559,-0.588,-0.5219
58.589,-0.5888,-0.5247
58.619,-0.5892,-0.5202
58.648,-0.5946,-0.5201
58.677,-0.5902,-0.5258
58.707,-0.5913,-0.5333
58.737,-0.5888,-0.5383
58.766,-0.5893,-0.5416
58.796,-0.592,-0.5411
58.825,-0.5885,-0.5375
58.855,-0.59,-0.5362
58.885,-0.5932,-0.5309
58.914,-0.5867,-0.5355
58.944,-0.589,-0.532
58.974,-0.5899,-0.5308
59.004,-0.5913,-0.5326
59.034,-0.5902,-0.5311
59.062,-0.5893,-0.5305
59.092,-0.5915,-0.5253
59.122,-0.5868,-0.5288
59.152,-0.5903,-0.5261
59.181,-0.5835,-0.5239
59.21,-0.5883,-0.5232
59.24,-0.5916,-0.5201
59.27,-0.5917,-0.5199
59.299,-0.592,-0.5182
59.329,-0.589,-0.5154
59.363,-0.588,-0.5193
59.388,-0.5883,-0.5184
59.418,-0.5936,-0.5187
59.45,-0.588,-0.5222
59.477,-0.5864,-0.5292
59.507,-0.5904,-0.5344
59.536,-0.5902,-0.5362
59.566,-0.5913,-0.533
59.595,-0.59,-0.5314
59.625,-0.5877,-0.5282
59.655,-0.5898,-0.5251
59.684,-0.5924,-0.5204
59.714,-0.5904,-0.5218
59.744,-0.5865,-0.5207
59.773,-0.5901,-0.5197
59.803,-0.59,-0.5169
59.832,-0.5909,-0.5199
59.862,-0.5917,-0.5166
59.892,-0.5903,-0.5161
59.924,-0.5898,-0.5125
59.951,-0.5925,-0.509
59.98,-0.5903,-0.5048
60.01,-0.5892,-0.5013
60.04,-0.5876,-0.4977
60.069,-0.5902,-0.4958
60.099,-0.5904,-0.491
60.128,-0.5896,-0.4945
60.158,-0.5884,-0.4951
60.19,-0.587,-0.4927
60.221,-0.5932,-0.4911
60.247,-0.5896,-0.4892
60.277,-0.5907,-0.4976
60.306,-0.589,-0.5062
60.336,-0.5904,-0.5121
60.368,-0.5853,-0.5118
60.395,-0.5877,-0.5119
60.425,-0.5886,-0.5093
60.454,-0.5928,-0.5079
60.484,-0.5904,-0.5069
60.514,-0.5898,-0.5024
60.544,-0.5895,-0.5008
60.573,-0.5886,-0.5011
60.602,-0.5893,-0.4996
60.632,-0.5912,-0.4968
60.664,-0.5902,-0.4943
60.691,-0.5906,-0.4939
60.721,-0.5927,-0.4888
60.756,-0.5876,-0.4872
60.78,-0.5898,-0.4869
60.815,-0.5899,-0.4875
60.838,-0.591,-0.4876
60.868,-0.5904,-0.4853
60.898,-0.5884,-0.485
60.927,-0.5895,-0.4899
60.958,-0.589,-0.4878
60.987,-0.5916,-0.4861
61.017,-0.592,-0.4829
61.047,-0.5887,-0.4839
61.076,-0.5875,-0.4876
61.106,-0.589,-0.4948
61.135,-0.5908,-0.5002
61.164,-0.5899,-0.4979
61.194,-0.5924,-0.4957
61.225,-0.5883,-0.4979
61.254,-0.5896,-0.4886
61.283,-0.5895,-0.4899
61.312,-0.5901,-0.4897
61.351,-0.5898,-0.4901
61.372,-0.5887,-0.492
61.402,-0.5888,-0.4915
61.432,-0.5894,-0.4908
61.462,-0.5864,-0.4905
61.49,-0.5894,-0.4888
61.521,-0.59,-0.4851
61.55,-0.5873,-0.4874
61.58,-0.5887,-0.4825
61.61,-0.5879,-0.4843
61.639,-0.5876,-0.4833
61.669,-0.5895,-0.4816
61.699,-0.5907,-0.4813
61.728,-0.5901,-0.4808
61.758,-0.5873,-0.4781
61.787,-0.5891,-0.4813
61.816,-0.5897,-0.4772
61.847,-0.5892,-0.476
61.875,-0.5901,-0.4841
61.907,-0.5891,-0.4898
61.934,-0.585,-0.4981
61.968,-0.588,-0.4994
61.994,-0.5896,-0.5002
62.024,-0.5913,-0.4971
62.053,-0.589,-0.4972
62.083,-0.5878,-0.5008
62.112,-0.5891,-0.4949
62.143,-0.5888,-0.493
62.172,-0.5857,-0.4932
62.209,-0.5887,-0.4919
62.231,-0.5903,-0.4934
62.26,-0.5887,-0.4914
62.29,-0.5899,-0.492
62.322,-0.591,-0.4866
62.349,-0.5883,-0.4885
62.379,-0.5884,-0.4846
62.408,-0.5884,-0.4864
62.439,-0.594,-0.483
62.469,-0.5866,-0.4819
62.498,-0.5921,-0.4844
62.527,-0.5913,-0.4843
62.557,-0.587,-0.4857
62.586,-0.5933,-0.4792
62.616,-0.5859,-0.4806
62.645,-0.5902,-0.476
62.675,-0.5888,-0.4723
62.705,-0.5882,-0.4747
62.736,-0.5894,-0.4758
62.765,-0.5891,-0.4861
62.794,-0.5932,-0.494
62.827,-0.5863,-0.4953
62.853,-0.5855,-0.4951
62.882,-0.5901,-0.4949
62.912,-0.5882,-0.4929
62.942,-0.5878,-0.4931
62.971,-0.584,-0.4893
63.001,-0.5887,-0.49
63.034,-0.5875,-0.4871
63.06,-0.589,-0.4858
63.09,-0.5901,-0.4885
63.119,-0.5884,-0.4877
63.149,-0.5846,-0.4844
63.18,-0.5877,-0.4831
63.208,-0.5905,-0.4852
63.238,-0.5894,-0.4802
63.267,-0.5876,-0.4806
63.297,-0.5896,-0.4811
63.331,-0.5859,-0.4797
63.357,-0.5899,-0.4787
63.387,-0.5887,-0.4763
63.423,-0.5865,-0.4756
63.445,-0.5918,-0.4717
63.476,-0.5865,-0.4727
63.504,-0.5885,-0.4751
63.534,-0.5902,-0.4742
63.564,-0.5907,-0.4755
63.593,-0.5898,-0.4838
63.623,-0.5873,-0.49
63.653,-0.5883,-0.4933
63.682,-0.5868,-0.494
63.712,-0.5888,-0.49
63.741,-0.5899,-0.4889
63.771,-0.5879,-0.485
63.801,-0.5885,-0.4833
63.83,-0.5891,-0.4815
63.86,-0.5869,-0.4841
63.889,-0.5907,-0.4807
63.92,-0.5887,-0.4805
63.95,-0.5866,-0.4814
63.978,-0.5902,-0.4795
64.008,-0.5893,-0.473
64.038,-0.5926,-0.4703
64.067,-0.5895,-0.4697
64.098,-0.5922,-0.4687
64.126,-0.5888,-0.4668
64.156,-0.5896,-0.4649
64.187,-0.5891,-0.4654
64.215,-0.5899,-0.4656
64.245,-0.5883,-0.4638
64.274,-0.5918,-0.4606
64.304,-0.5866,-0.4598
64.334,-0.5902,-0.4587
64.363,-0.5896,-0.4556
64.393,-0.5864,-0.4622
64.423,-0.59,-0.4695
64.452,-0.5884,-0.4795
64.482,-0.5874,-0.4839
64.511,-0.5902,-0.485
64.544,-0.5883,-0.4837
64.571,-0.5875,-0.4826
64.6,-0.5896,-0.479
64.63,-0.5898,-0.4768
64.66,-0.5917,-0.4771
64.689,-0.5893,-0.4753
64.719,-0.5869,-0.4734
64.748,-0.5862,-0.4742
64.778,-0.5884,-0.4718
64.812,-0.5926,-0.4722
64.837,-0.5874,-0.4698
64.867,-0.5892,-0.4684
64.897,-0.5903,-0.4673
64.926,-0.5856,-0.4691
64.956,-0.5926,-0.4672
64.987,-0.59,-0.4662
65.014,-0.5892,-0.4649
65.044,-0.5858,-0.4683
65.074,-0.5893,-0.467
65.104,-0.5887,-0.4629
65.134,-0.5884,-0.4637
65.163,-0.5902,-0.4639
65.196,-0.5894,-0.4675
65.223,-0.5882,-0.4755
65.252,-0.5905,-0.4824
65.286,-0.5925,-0.4833
65.312,-0.5918,-0.4851
65.34,-0.5877,-0.4824
65.37,-0.5868,-0.4795
65.399,-0.5902,-0.4776
65.43,-0.5917,-0.4735
65.46,-0.5891,-0.4752
65.489,-0.5896,-0.4736
65.519,-0.589,-0.4731
65.548,-0.5886,-0.4755
65.58,-0.5909,-0.475
65.608,-0.5898,-0.47
65.637,-0.5875,-0.4706
65.667,-0.5899,-0.4694
65.696,-0.5866,-0.4714
65.725,-0.5938,-0.4667
65.755,-0.5885,-0.4669
65.785,-0.5877,-0.4682
65.815,-0.5881,-0.4675
65.845,-0.59,-0.4662
65.874,-0.5907,-0.4634
65.904,-0.5893,-0.4641
65.933,-0.5874,-0.4598
65.962,-0.5909,-0.4688
65.993,-0.5905,-0.4731
66.022,-0.5917,-0.4804
66.052,-0.5913,-0.4801
66.088,-0.5875,-0.4795
66.111,-0.5904,-0.4802
66.141,-0.5902,-0.4777
66.17,-0.5904,-0.4763
66.199,-0.5909,-0.4734
66.23,-0.5929,-0.4728
66.258,-0.5893,-0.472
66.289,-0.5914,-0.4679
66.319,-0.5879,-0.4714
66.348,-0.5905,-0.4692
66.378,-0.5891,-0.4697
66.407,-0.5932,-0.4678
66.437,-0.5887,-0.4662
66.467,-0.593,-0.4642
66.495,-0.5881,-0.4618
66.525,-0.5884,-0.4625
66.554,-0.5912,-0.4646
66.587,-0.5909,-0.4638
66.616,-0.5906,-0.4601
66.643,-0.5895,-0.4554
66.68,-0.5923,-0.4576
66.703,-0.5894,-0.454
66.734,-0.5907,-0.4562
66.763,-0.5877,-0.4561
66.791,-0.5909,-0.4571
66.821,-0.5928,-0.466
66.852,-0.5926,-0.4756
66.882,-0.5903,-0.4769
66.91,-0.5933,-0.4802
66.945,-0.5875,-0.4766
66.969,-0.5909,-0.478
66.999,-0.5925,-0.4771
67.029,-0.5876,-0.4748
67.058,-0.5899,-0.4756
67.088,-0.5918,-0.4725
67.117,-0.5882,-0.4732
67.149,-0.5884,-0.4695
67.178,-0.5923,-0.4712
67.207,-0.5873,-0.4653
67.236,-0.5928,-0.467
67.265,-0.5912,-0.4629
67.295,-0.5923,-0.462
67.327,-0.5901,-0.4634
67.354,-0.587,-0.4611
67.384,-0.5908,-0.4595
67.414,-0.5907,-0.4594
67.443,-0.5881,-0.4603
67.474,-0.5892,-0.4583
67.502,-0.5905,-0.4589
67.536,-0.5929,-0.4583
67.562,-0.5891,-0.4587
67.592,-0.5869,-0.4597
67.622,-0.5887,-0.469
67.65,-0.5931,-0.4774
67.68,-0.5921,-0.4798
67.71,-0.5886,-0.4805
67.739,-0.5935,-0.4766
67.769,-0.588,-0.4769
67.799,-0.59,-0.4728
67.828,-0.588,-0.4697
67.858,-0.5876,-0.4705
67.887,-0.5901,-0.4691
67.918,-0.5901,-0.4706
67.947,-0.5901,-0.4689
67.976,-0.591,-0.4709
68.006,-0.5888,-0.4645
68.035,-0.5898,-0.4654
68.066,-0.5895,-0.4645
68.096,-0.5905,-0.4592
68.124,-0.59,-0.4605
68.154,-0.5907,-0.4609
68.196,-0.5889,-0.4602
68.214,-0.5894,-0.4601
68.243,-0.5906,-0.4592
68.272,-0.5866,-0.4573
68.302,-0.5871,-0.4567
68.332,-0.5896,-0.4578
68.364,-0.5902,-0.4574
68.391,-0.591,-0.4726
68.421,-0.5912,-0.4755
68.452,-0.5888,-0.4764
68.48,-0.5884,-0.4824
68.511,-0.5881,-0.4788
68.539,-0.5909,-0.4748
68.569,-0.5896,-0.4723
68.598,-0.5913,-0.4717
68.628,-0.591,-0.4689
68.66,-0.591,-0.4697
68.687,-0.5901,-0.4715
68.717,-0.5908,-0.4673
68.748,-0.5907,-0.4672
68.779,-0.5882,-0.4673
68.806,-0.5882,-0.4644
68.835,-0.592,-0.4632
68.865,-0.5921,-0.4617
68.894,-0.5899,-0.4624
68.924,-0.5868,-0.4552
68.954,-0.5862,-0.4553
68.983,-0.5946,-0.4553
69.013,-0.5905,-0.4567
69.042,-0.5905,-0.4563
69.076,-0.5873,-0.4537
69.102,-0.5884,-0.4525
69.131,-0.5906,-0.4541
69.162,-0.5892,-0.4515
69.191,-0.5903,-0.4563
69.219,-0.5899,-0.4672
69.25,-0.5907,-0.4731
69.279,-0.593,-0.4744
69.309,-0.592,-0.4744
69.339,-0.5916,-0.4755
69.373,-0.5878,-0.473
69.398,-0.5917,-0.475
69.429,-0.5908,-0.4725
69.457,-0.5906,-0.4669
69.487,-0.5922,-0.4676
69.516,-0.5916,-0.468
69.546,-0.5921,-0.4675
69.576,-0.5916,-0.4694
69.605,-0.5921,-0.4667
69.635,-0.5912,-0.4676
69.666,-0.5887,-0.4625
69.694,-0.5906,-0.463
69.724,-0.5904,-0.4638
69.753,-0.5901,-0.4609
69.783,-0.5896,-0.463
69.813,-0.5913,-0.4613
69.842,-0.5895,-0.4612
69.872,-0.5902,-0.4614
69.902,-0.5937,-0.4611
69.931,-0.5916,-0.4635
69.961,-0.5923,-0.4625
69.989,-0.5927,-0.4669
70.02,-0.5913,-0.4772
70.051,-0.5895,-0.4784
70.078,-0.5905,-0.4802
70.108,-0.5888,-0.4795
70.139,-0.5892,-0.4791
70.169,-0.5913,-0.474
70.199,-0.5904,-0.4719
70.227,-0.5926,-0.4702
70.257,-0.5915,-0.4701
70.286,-0.5877,-0.4681
70.316,-0.5891,-0.468
70.347,-0.5882,-0.4651
70.374,-0.5877,-0.4658
70.404,-0.5916,-0.4634
70.436,-0.5951,-0.4659
70.464,-0.5925,-0.4621
70.494,-0.5895,-0.4629
70.524,-0.5887,-0.4602
70.553,-0.5905,-0.4597
70.583,-0.5919,-0.4595
70.612,-0.5904,-0.4559
70.641,-0.5907,-0.4583
70.671,-0.5938,-0.4585
70.7,-0.5912,-0.4565
70.731,-0.5898,-0.4557
70.761,-0.5895,-0.4595
70.789,-0.5918,-0.4645
70.819,-0.5926,-0.4738
70.849,-0.5907,-0.4779
70.879,-0.5914,-0.4771
70.909,-0.5915,-0.4751
70.938,-0.5904,-0.4747
70.968,-0.5912,-0.4739
70.996,-0.5912,-0.4719
71.027,-0.5957,-0.4637
71.06,-0.5896,-0.4618
71.085,-0.5901,-0.4649
71.116,-0.5907,-0.4649
71.145,-0.5902,-0.4629
71.175,-0.5893,-0.4633
71.205,-0.5916,-0.4625
71.233,-0.5905,-0.4614
71.263,-0.5914,-0.4573
71.293,-0.5924,-0.4609
71.323,-0.5916,-0.4573
71.352,-0.5902,-0.4557
71.385,-0.5903,-0.4566
71.411,-0.5918,-0.4561
71.442,-0.5898,-0.4542
71.47,-0.5914,-0.4543
71.501,-0.5921,-0.4564
71.53,-0.5891,-0.4556
71.559,-0.5911,-0.4541
71.589,-0.5923,-0.4524
71.619,-0.589,-0.4551
71.649,-0.5934,-0.4637
71.685,-0.5924,-0.4692
71.707,-0.5907,-0.4727
71.74,-0.5894,-0.475
71.766,-0.5901,-0.4719
71.798,-0.5931,-0.4709
71.827,-0.5906,-0.4684
71.855,-0.592,-0.4651
71.885,-0.5903,-0.4682
71.915,-0.5934,-0.4673
71.944,-0.592,-0.4679
71.975,-0.5902,-0.465
72.004,-0.5939,-0.4678
72.033,-0.5939,-0.4653
72.064,-0.5931,-0.4634
72.092,-0.5921,-0.4645
72.125,-0.5929,-0.4597
72.153,-0.5933,-0.4611
72.181,-0.5917,-0.4581
72.212,-0.5902,-0.4604
72.24,-0.5943,-0.4579
72.271,-0.5892,-0.4601
72.3,-0.5905,-0.4587
72.329,-0.5926,-0.4548
72.359,-0.5921,-0.4571
72.396,-0.5914,-0.4566
72.418,-0.5899,-0.4625
72.448,-0.5906,-0.47
72.477,-0.592,-0.4761
72.507,-0.5938,-0.4798
72.541,-0.5934,-0.478
72.57,-0.592,-0.4753
72.601,-0.5949,-0.4731
72.626,-0.5934,-0.4694
72.656,-0.5949,-0.4669
72.685,-0.5913,-0.4651
72.714,-0.5945,-0.4678
72.745,-0.5959,-0.4651
72.774,-0.5916,-0.4658
72.803,-0.5932,-0.466
72.833,-0.5926,-0.4617
72.863,-0.5899,-0.4628
72.892,-0.5918,-0.4573
72.922,-0.595,-0.4595
72.952,-0.5946,-0.4562
72.981,-0.5928,-0.4528
73.012,-0.5956,-0.456
73.04,-0.5887,-0.4526
73.07,-0.5933,-0.4546
73.1,-0.5943,-0.4544
73.132,-0.5914,-0.4541
73.159,-0.5957,-0.4532
73.189,-0.5929,-0.4508
73.226,-0.5935,-0.4496
73.248,-0.5967,-0.4533
73.277,-0.5935,-0.4613
73.307,-0.5899,-0.4705
73.337,-0.5967,-0.4747
73.366,-0.593,-0.4687
73.4,-0.5932,-0.4683
73.426,-0.5918,-0.4685
73.455,-0.5945,-0.4673
73.485,-0.5963,-0.4657
73.515,-0.5933,-0.4651
73.555,-0.5926,-0.4612
73.575,-0.5952,-0.4629
73.604,-0.5938,-0.4606
73.633,-0.5965,-0.4605
73.663,-0.5933,-0.4636
73.692,-0.5932,-0.4599
73.722,-0.5935,-0.4563
73.752,-0.5938,-0.4573
73.781,-0.5927,-0.4525
73.811,-0.5923,-0.4543
73.841,-0.5925,-0.455
73.87,-0.5956,-0.4531
73.901,-0.5918,-0.4537
73.928,-0.5951,-0.4532
73.958,-0.5973,-0.4504
73.989,-0.5951,-0.4526
74.018,-0.5957,-0.4486
74.057,-0.5947,-0.4518
74.078,-0.5913,-0.4614
74.107,-0.5945,-0.4676
74.137,-0.592,-0.4701
74.168,-0.5937,-0.4709
74.196,-0.5936,-0.4698
74.226,-0.5935,-0.4669
74.255,-0.5946,-0.4661
74.289,-0.5924,-0.4672
74.314,-0.595,-0.4663
74.343,-0.5917,-0.4651
74.373,-0.5924,-0.4607
74.403,-0.5954,-0.4615
74.433,-0.595,-0.4618
74.463,-0.5934,-0.4596
74.491,-0.5952,-0.4592
74.522,-0.5904,-0.4593
74.551,-0.5923,-0.459
74.58,-0.5952,-0.4561
74.61,-0.5911,-0.4552
74.641,-0.5935,-0.4566
74.67,-0.594,-0.4565
74.7,-0.5935,-0.4527
74.728,-0.5946,-0.4496
74.759,-0.5938,-0.4511
74.789,-0.5946,-0.4517
74.818,-0.5918,-0.4613
74.848,-0.5926,-0.4665
74.878,-0.5921,-0.4733
74.907,-0.5916,-0.4737
74.937,-0.5926,-0.4695
74.966,-0.5912,-0.468
74.996,-0.5963,-0.4681
75.026,-0.5924,-0.4673
75.056,-0.5913,-0.4604
75.085,-0.5917,-0.4612
75.114,-0.5904,-0.4597
75.144,-0.5905,-0.4595
75.174,-0.5938,-0.4592
75.203,-0.5913,-0.4605
75.232,-0.5912,-0.4558
75.262,-0.592,-0.4523
75.291,-0.5946,-0.4553
75.322,-0.5921,-0.4499
75.351,-0.5919,-0.4515
75.382,-0.5933,-0.4509
75.41,-0.5931,-0.4534
75.44,-0.592,-0.4507
75.47,-0.5943,-0.4498
75.5,-0.5954,-0.4467
75.529,-0.5928,-0.4474
75.559,-0.5923,-0.4467
75.588,-0.5935,-0.4487
75.617,-0.589,-0.4457
75.647,-0.5891,-0.4532
75.677,-0.5935,-0.4601
75.706,-0.5929,-0.4658
75.736,-0.5924,-0.4692
75.766,-0.5898,-0.4675
75.796,-0.5973,-0.4684
75.825,-0.5909,-0.4675
75.854,-0.5927,-0.4656
75.885,-0.5935,-0.4615
75.915,-0.5928,-0.4594
75.944,-0.5938,-0.4587
75.973,-0.5934,-0.4601
76.002,-0.5958,-0.4601
76.032,-0.594,-0.4594
76.063,-0.5941,-0.4579
76.092,-0.5929,-0.4565
76.122,-0.5966,-0.4551
76.151,-0.5941,-0.4567
76.18,-0.5937,-0.4545
76.21,-0.5922,-0.4544
76.239,-0.5954,-0.4534
76.269,-0.5916,-0.4521
76.299,-0.5893,-0.4514
76.328,-0.5937,-0.4491
76.358,-0.5923,-0.4497
76.388,-0.5939,-0.4488
76.417,-0.5925,-0.4491
76.447,-0.5904,-0.4493
76.476,-0.5924,-0.4484
76.506,-0.5917,-0.4573
76.536,-0.5941,-0.4653
76.566,-0.5907,-0.4667
76.596,-0.5906,-0.4675
76.625,-0.5894,-0.4611
76.654,-0.594,-0.4627
76.684,-0.5918,-0.4597
76.714,-0.5921,-0.4568
76.743,-0.5913,-0.4568
76.773,-0.5915,-0.4554
76.803,-0.5918,-0.4555
76.832,-0.5907,-0.4553
76.862,-0.5907,-0.4548
76.892,-0.5902,-0.4545
76.921,-0.5909,-0.4524
76.951,-0.5933,-0.4523
76.98,-0.5931,-0.4474
77.01,-0.5926,-0.4479
77.04,-0.5927,-0.4471
77.069,-0.5927,-0.4474
77.099,-0.5902,-0.4451
77.13,-0.5898,-0.4485
77.159,-0.5913,-0.445
77.188,-0.5904,-0.4432
77.218,-0.5908,-0.4451
77.247,-0.5911,-0.4435
77.279,-0.5902,-0.4449
77.306,-0.5909,-0.4504
77.336,-0.5907,-0.4582
77.366,-0.5915,-0.4626
77.395,-0.5896,-0.4617
77.425,-0.5927,-0.4618
77.454,-0.5883,-0.4623
77.484,-0.5929,-0.4589
77.514,-0.5925,-0.4535
77.543,-0.5921,-0.4527
77.573,-0.5953,-0.4516
77.604,-0.5933,-0.4525
77.632,-0.5896,-0.4507
77.662,-0.591,-0.452
77.691,-0.5896,-0.4524
77.722,-0.5918,-0.4506
77.751,-0.5896,-0.4472
77.78,-0.5917,-0.4466
77.81,-0.5917,-0.4443
77.84,-0.5899,-0.4423
77.869,-0.5909,-0.4404
77.899,-0.5856,-0.4433
77.929,-0.5895,-0.4413
77.958,-0.591,-0.4405
77.988,-0.5905,-0.4408
78.018,-0.5909,-0.4389
78.046,-0.5911,-0.4374
78.076,-0.5896,-0.4363
78.105,-0.5888,-0.4382
78.136,-0.5871,-0.4369
78.166,-0.593,-0.4485
78.195,-0.5891,-0.4567
78.225,-0.5892,-0.4623
78.254,-0.5884,-0.4586
78.284,-0.5904,-0.4561
78.314,-0.5881,-0.4575
78.343,-0.5903,-0.4548
78.373,-0.5899,-0.4505
78.403,-0.5876,-0.4512
78.436,-0.5907,-0.4489
78.466,-0.5876,-0.4537
78.494,-0.5899,-0.4477
78.525,-0.5914,-0.4492
78.551,-0.5916,-0.4468
78.58,-0.5888,-0.4431
78.61,-0.5879,-0.4429
78.639,-0.5891,-0.442
78.668,-0.5902,-0.4422
78.698,-0.5893,-0.4398
78.728,-0.5909,-0.4388
78.758,-0.5926,-0.44
78.792,-0.5887,-0.4389
78.817,-0.5887,-0.4371
78.847,-0.5911,-0.4399
78.876,-0.5882,-0.4396
78.909,-0.5902,-0.4386
78.935,-0.5896,-0.4496
78.964,-0.5917,-0.4526
78.994,-0.5904,-0.4567
79.025,-0.5885,-0.4564
79.054,-0.5888,-0.4537
79.084,-0.5909,-0.4528
79.113,-0.5866,-0.4526
79.143,-0.5874,-0.4465
79.173,-0.5887,-0.4482
79.203,-0.5879,-0.4462
79.233,-0.5917,-0.4448
79.262,-0.5885,-0.4473
79.29,-0.589,-0.446
79.321,-0.5846,-0.4451
79.35,-0.5899,-0.4426
79.379,-0.5865,-0.4444
79.409,-0.5903,-0.4434
79.439,-0.5869,-0.4417
79.468,-0.5906,-0.444
79.5,-0.5885,-0.4398
79.527,-0.5906,-0.4377
79.557,-0.5873,-0.4377
79.586,-0.5868,-0.4385
79.617,-0.5897,-0.4365
79.647,-0.5898,-0.44
79.676,-0.5865,-0.4431
79.705,-0.5901,-0.4501
79.736,-0.5884,-0.4578
79.765,-0.5915,-0.4565
79.794,-0.588,-0.4562
79.825,-0.5896,-0.4556
79.854,-0.5892,-0.4528
79.884,-0.5901,-0.4526
79.913,-0.5885,-0.447
79.943,-0.5885,-0.4479
79.973,-0.5879,-0.4476
80.002,-0.5911,-0.4466
80.032,-0.5872,-0.4496
80.062,-0.5869,-0.4478
80.091,-0.5882,-0.447
80.121,-0.5879,-0.4426
80.149,-0.5876,-0.4406
80.179,-0.589,-0.441
80.209,-0.591,-0.438
80.238,-0.5875,-0.44
80.269,-0.5895,-0.4387
80.299,-0.5866,-0.4357
80.327,-0.5913,-0.4363
80.358,-0.59,-0.4336
80.387,-0.5867,-0.4339
80.417,-0.5928,-0.4339
80.446,-0.5885,-0.4335
80.475,-0.5861,-0.436
80.513,-0.5899,-0.4419
80.536,-0.586,-0.454
80.565,-0.589,-0.4535
80.594,-0.5911,-0.4542
80.624,-0.5876,-0.4525
80.654,-0.5873,-0.451
80.684,-0.5878,-0.449
80.712,-0.5902,-0.4481
80.742,-0.5857,-0.4479
80.772,-0.5893,-0.4437
80.802,-0.591,-0.4464
80.833,-0.5899,-0.4474
80.86,-0.5904,-0.4472
80.89,-0.5894,-0.446
80.92,-0.5891,-0.4436
80.949,-0.5879,-0.4427
80.98,-0.5854,-0.4434
81.009,-0.5923,-0.4393
81.038,-0.589,-0.4364
81.068,-0.5857,-0.4398
81.098,-0.5893,-0.439
81.128,-0.5909,-0.4348
81.157,-0.5873,-0.4341
81.187,-0.589,-0.4313
81.217,-0.5899,-0.4321
81.245,-0.589,-0.4366
81.276,-0.5885,-0.4371
81.305,-0.589,-0.444
81.335,-0.587,-0.4486
81.364,-0.5872,-0.4559
81.396,-0.5908,-0.451
81.423,-0.5893,-0.4542
81.453,-0.5899,-0.4492
81.483,-0.5911,-0.446
81.513,-0.5885,-0.4452
81.542,-0.5882,-0.4414
81.571,-0.5866,-0.4402
81.601,-0.5897,-0.4428
81.63,-0.5896,-0.4399
81.66,-0.5887,-0.439
81.692,-0.5869,-0.4416
81.72,-0.5909,-0.4387
81.752,-0.589,-0.4379
81.78,-0.5878,-0.436
81.808,-0.5915,-0.4394
81.838,-0.5879,-0.4346
81.869,-0.5893,-0.4341
81.898,-0.5912,-0.436
81.927,-0.587,-0.4324
81.956,-0.5875,-0.4332
81.988,-0.586,-0.4318
82.017,-0.5881,-0.4313
82.046,-0.5879,-0.4391
82.076,-0.5887,-0.4431
82.105,-0.5923,-0.4469
82.134,-0.5885,-0.4467
82.164,-0.5889,-0.4474
82.193,-0.5874,-0.4446
82.223,-0.5875,-0.4463
82.253,-0.5864,-0.4439
82.282,-0.5899,-0.4402
82.312,-0.5912,-0.4423
82.342,-0.5888,-0.4411
82.371,-0.5905,-0.4369
82.401,-0.5905,-0.4386
82.43,-0.5884,-0.4341
82.46,-0.5914,-0.4324
82.49,-0.5906,-0.4312
82.521,-0.5911,-0.4321
82.549,-0.5886,-0.4286
82.579,-0.5916,-0.4258
82.608,-0.5883,-0.4296
82.638,-0.5871,-0.4303
82.667,-0.5917,-0.43
82.697,-0.5878,-0.4319
82.727,-0.5921,-0.4285
82.756,-0.5893,-0.4283
82.786,-0.5888,-0.43
82.816,-0.589,-0.43
82.845,-0.5908,-0.4302
82.875,-0.5888,-0.4369
82.904,-0.5915,-0.4418
82.934,-0.5862,-0.4446
82.964,-0.5916,-0.4414
82.993,-0.5879,-0.4413
83.023,-0.592,-0.4407
83.053,-0.5869,-0.4416
83.082,-0.5896,-0.4355
83.112,-0.5897,-0.4357
83.141,-0.5885,-0.4334
83.171,-0.5861,-0.4368
83.201,-0.5906,-0.4348
83.231,-0.5912,-0.4366
83.26,-0.5915,-0.4323
83.29,-0.5859,-0.4313
83.32,-0.5904,-0.4337
83.349,-0.5907,-0.4344
83.379,-0.5897,-0.4319
83.407,-0.5904,-0.4308
83.437,-0.588,-0.4308
83.469,-0.5867,-0.4278
83.497,-0.5881,-0.4266
83.526,-0.5908,-0.431
83.556,-0.5879,-0.4272
83.586,-0.5902,-0.4263
83.615,-0.589,-0.4264
83.645,-0.5898,-0.4234
83.674,-0.5921,-0.4305
83.703,-0.5891,-0.4394
83.733,-0.5932,-0.4446
83.764,-0.5885,-0.4463
83.792,-0.5882,-0.4463
83.822,-0.5891,-0.4443
83.851,-0.589,-0.4447
83.882,-0.5905,-0.4435
83.911,-0.5904,-0.4363
83.941,-0.5878,-0.44
83.97,-0.5904,-0.439
83.999,-0.5888,-0.4371
84.03,-0.5863,-0.4389
84.06,-0.5893,-0.4382
84.089,-0.5868,-0.437
84.119,-0.5899,-0.4345
84.148,-0.5885,-0.4327
84.177,-0.5882,-0.4326
84.208,-0.5898,-0.4346
84.236,-0.589,-0.4322
84.267,-0.5893,-0.4371
84.296,-0.5879,-0.4308
84.325,-0.591,-0.4323
84.356,-0.5893,-0.4329
84.386,-0.5893,-0.4331
84.415,-0.5879,-0.4354
84.449,-0.592,-0.4324
84.475,-0.5922,-0.4377
84.504,-0.5879,-0.4471
84.534,-0.5871,-0.4531
84.562,-0.5895,-0.4517
84.592,-0.589,-0.4481
84.622,-0.5906,-0.4466
84.651,-0.5892,-0.4466
84.682,-0.5908,-0.4449
84.712,-0.5902,-0.4412
84.74,-0.589,-0.4431
84.775,-0.5914,-0.4409
84.8,-0.5921,-0.4432
84.83,-0.5895,-0.444
84.864,-0.5895,-0.4438
84.888,-0.5885,-0.4414
84.918,-0.5912,-0.4396
84.952,-0.5896,-0.4395
84.981,-0.5931,-0.4398
85.007,-0.5878,-0.4362
85.037,-0.5917,-0.4385
85.066,-0.588,-0.4357
85.096,-0.5894,-0.4384
85.128,-0.5895,-0.4351
85.155,-0.5905,-0.4354
85.185,-0.5899,-0.4374
85.214,-0.5918,-0.441
85.245,-0.5899,-0.4461
85.275,-0.5878,-0.4515
85.304,-0.5891,-0.4571
85.333,-0.588,-0.455
85.363,-0.5905,-0.4481
85.392,-0.5915,-0.4493
85.422,-0.5899,-0.4514
85.452,-0.5894,-0.4462
85.481,-0.5873,-0.4468
85.511,-0.5873,-0.4451
85.542,-0.5904,-0.4457
85.57,-0.5904,-0.4448
85.601,-0.5892,-0.4405
85.629,-0.591,-0.4413
85.661,-0.59,-0.4423
85.689,-0.5909,-0.4363
85.718,-0.5912,-0.441
85.748,-0.5883,-0.4376
85.778,-0.5876,-0.4395
85.81,-0.5905,-0.4401
85.837,-0.5934,-0.4387
85.867,-0.5886,-0.4363
85.896,-0.5893,-0.4334
85.926,-0.5892,-0.4353
85.955,-0.5866,-0.4349
85.986,-0.589,-0.432
86.015,-0.5916,-0.4363
86.05,-0.5908,-0.4479
86.074,-0.59,-0.4523
86.104,-0.5876,-0.4531
86.133,-0.5898,-0.4518
86.163,-0.5884,-0.4565
86.193,-0.5918,-0.4543
86.222,-0.5865,-0.4546
86.252,-0.5897,-0.4481
86.282,-0.5887,-0.444
86.312,-0.5899,-0.4473
86.341,-0.59,-0.4479
86.37,-0.5909,-0.4517
86.401,-0.5866,-0.4453
86.43,-0.5875,-0.4459
86.46,-0.5852,-0.4447
86.489,-0.5883,-0.4435
86.519,-0.5904,-0.444
86.548,-0.5885,-0.4424
86.582,-0.5898,-0.442
86.607,-0.5852,-0.4383
86.637,-0.5876,-0.4405
86.667,-0.5916,-0.438
86.697,-0.5904,-0.4377
86.73,-0.5916,-0.4346
86.756,-0.5888,-0.4374
86.786,-0.5858,-0.4393
86.815,-0.5874,-0.4385
86.847,-0.59,-0.4461
86.874,-0.5897,-0.4537
86.904,-0.5915,-0.4565
86.934,-0.5908,-0.4559
86.964,-0.589,-0.4518
86.993,-0.5903,-0.4534
87.022,-0.5896,-0.4521
87.053,-0.592,-0.4513
87.083,-0.5893,-0.4466
87.113,-0.5907,-0.4481
87.145,-0.5905,-0.4445
87.171,-0.5887,-0.443
87.201,-0.5875,-0.4449
87.233,-0.5904,-0.4446
87.26,-0.5877,-0.442
87.289,-0.5909,-0.4431
87.319,-0.5902,-0.4395
87.348,-0.5871,-0.4418
87.378,-0.5885,-0.4383
87.408,-0.5877,-0.4406
87.442,-0.5879,-0.4398
87.467,-0.5889,-0.4382
87.497,-0.5905,-0.4364
87.528,-0.5929,-0.4361
87.555,-0.5897,-0.436
87.585,-0.5946,-0.4448
87.615,-0.5901,-0.4539
87.645,-0.5882,-0.4532
87.674,-0.59,-0.451
87.704,-0.5876,-0.4498
87.734,-0.5874,-0.4449
87.763,-0.5888,-0.4485
87.793,-0.5854,-0.445
87.824,-0.5898,-0.4448
87.855,-0.5873,-0.4437
87.882,-0.5915,-0.4451
87.917,-0.5895,-0.443
87.943,-0.5904,-0.4443
87.971,-0.5888,-0.4431
88.001,-0.5898,-0.4416
88.03,-0.5916,-0.441
88.059,-0.5893,-0.4398
88.09,-0.5898,-0.4378
88.118,-0.5933,-0.4373
88.149,-0.5899,-0.4379
88.178,-0.5909,-0.4361
88.209,-0.589,-0.4368
88.238,-0.5887,-0.4341
88.27,-0.5882,-0.4334
88.297,-0.5868,-0.4343
88.327,-0.5923,-0.4366
88.355,-0.5871,-0.4456
88.386,-0.5896,-0.4532
88.414,-0.5898,-0.4583
88.444,-0.5887,-0.456
88.474,-0.5904,-0.4521
88.503,-0.5901,-0.4498
88.534,-0.5901,-0.4514
88.563,-0.5909,-0.4457
88.592,-0.5877,-0.4463
88.623,-0.5907,-0.4443
88.653,-0.5877,-0.4435
88.683,-0.5886,-0.444
88.711,-0.5888,-0.4448
88.74,-0.5917,-0.4376
88.77,-0.586,-0.4385
88.802,-0.5905,-0.4377
88.83,-0.5888,-0.4368
88.86,-0.5904,-0.4363
88.892,-0.5901,-0.4362
88.919,-0.5916,-0.4314
88.949,-0.5877,-0.4338
88.978,-0.5921,-0.4346
89.007,-0.5884,-0.4331
89.038,-0.5898,-0.4341
89.066,-0.5902,-0.4297
89.096,-0.5916,-0.4274
89.126,-0.5924,-0.4334
89.156,-0.5884,-0.4451
89.185,-0.5873,-0.4502
89.214,-0.5889,-0.4562
89.244,-0.5923,-0.4524
89.275,-0.5908,-0.4525
89.303,-0.589,-0.4514
89.333,-0.5917,-0.4507
89.363,-0.5896,-0.4485
89.393,-0.5878,-0.4444
89.423,-0.5916,-0.4436
89.451,-0.589,-0.4467
89.481,-0.5905,-0.4451
89.512,-0.5879,-0.4416
89.541,-0.5899,-0.4377
89.571,-0.588,-0.4211
89.601,-0.5895,-0.3933
89.63,-0.5902,-0.3683
89.659,-0.5932,-0.3466
89.688,-0.5931,-0.3116
89.718,-0.5912,-0.2822
89.748,-0.5924,-0.2632
89.777,-0.5904,-0.2631
89.808,-0.5899,-0.2602
89.836,-0.5917,-0.2502
89.867,-0.5934,-0.2518
89.896,-0.5892,-0.2546
89.925,-0.5891,-0.256
89.955,-0.5898,-0.2551
89.984,-0.5907,-0.254
90.014,-0.5869,-0.2567
90.044,-0.5907,-0.2448
90.077,-0.5895,-0.2435
90.103,-0.5922,-0.2388
90.133,-0.5901,-0.2409
90.162,-0.5912,-0.238
90.194,-0.5905,-0.2363
90.222,-0.5896,-0.2385
90.251,-0.5888,-0.241
90.281,-0.5902,-0.2383
90.31,-0.5876,-0.239
90.342,-0.5889,-0.2401
90.371,-0.5898,-0.2382
90.403,-0.588,-0.2408
90.429,-0.5888,-0.2383
90.458,-0.5896,-0.236
90.49,-0.5855,-0.2369
90.518,-0.5882,-0.2369
90.547,-0.5903,-0.2399
90.58,-0.5909,-0.236
90.608,-0.5895,-0.2371
90.637,-0.5865,-0.2363
90.666,-0.5895,-0.2398
90.696,-0.5882,-0.2364
90.726,-0.5918,-0.2384
90.755,-0.5921,-0.2379
90.784,-0.5873,-0.2344
90.814,-0.5873,-0.2396
90.844,-0.5916,-0.2355
90.873,-0.5891,-0.2369
90.903,-0.5901,-0.2364
90.933,-0.5884,-0.2333
90.963,-0.5886,-0.2354
90.997,-0.5913,-0.2338
91.022,-0.5884,-0.2383
91.051,-0.5901,-0.235
91.081,-0.589,-0.235
91.11,-0.5913,-0.2368
91.14,-0.5912,-0.2373
91.171,-0.5885,-0.238
91.2,-0.5934,-0.2382
91.229,-0.5869,-0.2369
91.259,-0.5888,-0.237
91.288,-0.5907,-0.2361
91.318,-0.5902,-0.2386
91.348,-0.5937,-0.239
91.378,-0.59,-0.2378
91.407,-0.5909,-0.2389
91.436,-0.5912,-0.2407
91.467,-0.5917,-0.2382
91.497,-0.5929,-0.2359
91.525,-0.5926,-0.2361
91.555,-0.5931,-0.2325
91.587,-0.5941,-0.234
91.614,-0.5946,-0.2348
91.644,-0.5963,-0.2377
91.674,-0.5951,-0.2325
91.703,-0.5971,-0.2368
91.733,-0.5961,-0.2381
91.764,-0.5963,-0.2327
91.793,-0.5993,-0.2326
91.822,-0.5951,-0.2354
91.851,-0.5974,-0.236
91.881,-0.5951,-0.2354
91.911,-0.5976,-0.2338
91.94,-0.6003,-0.2339
91.971,-0.5972,-0.2344
92,-0.5963,-0.2308
92.028,-0.5984,-0.2348
92.06,-0.5971,-0.2341
92.089,-0.5974,-0.2366
92.118,-0.5953,-0.238
92.147,-0.5937,-0.2356
92.176,-0.5958,-0.24
92.206,-0.5964,-0.2416
92.237,-0.599,-0.2395
92.266,-0.596,-0.24
92.296,-0.5958,-0.2449
92.326,-0.5951,-0.249
92.355,-0.6001,-0.2469
92.385,-0.5987,-0.2454
92.414,-0.5974,-0.2449
92.444,-0.5998,-0.245
92.474,-0.6011,-0.2435
92.503,-0.6032,-0.2474
92.532,-0.5946,-0.2515
92.563,-0.5994,-0.2477
92.591,-0.5971,-0.2479
92.621,-0.5984,-0.2478
92.65,-0.6003,-0.2455
92.68,-0.5968,-0.2455
92.71,-0.5963,-0.247
92.741,-0.5951,-0.2483
92.77,-0.6018,-0.2512
92.8,-0.5973,-0.2479
92.829,-0.5971,-0.2494
92.859,-0.5965,-0.2479
92.888,-0.5988,-0.249
92.918,-0.5947,-0.2508
92.948,-0.5975,-0.252
92.977,-0.5989,-0.2508
93.007,-0.5983,-0.2488
93.036,-0.5987,-0.2513
93.066,-0.5985,-0.2543
93.096,-0.6004,-0.2498
93.126,-0.5978,-0.2532
93.155,-0.5991,-0.2538
93.186,-0.5985,-0.252
93.213,-0.5982,-0.2549
93.244,-0.5971,-0.2547
93.273,-0.5995,-0.2549
93.302,-0.5993,-0.2546
93.332,-0.5963,-0.2584
93.362,-0.5982,-0.2522
93.391,-0.5945,-0.2554
93.422,-0.5955,-0.2547
93.451,-0.6004,-0.2528
93.481,-0.6029,-0.2569
93.511,-0.5951,-0.2582
93.54,-0.5981,-0.257
93.569,-0.5999,-0.2584
93.599,-0.5982,-0.2576
93.628,-0.6,-0.2568
93.659,-0.5998,-0.256
93.688,-0.5961,-0.2569
93.717,-0.6006,-0.2582
93.748,-0.5991,-0.2606
93.776,-0.599,-0.2584
93.806,-0.5971,-0.2565
93.837,-0.5995,-0.255
93.866,-0.6009,-0.2573
93.895,-0.5982,-0.2568
93.925,-0.5962,-0.2562
93.955,-0.5978,-0.257
93.984,-0.5988,-0.2595
94.015,-0.5996,-0.2579
94.043,-0.5977,-0.2582
94.073,-0.6001,-0.2567
94.103,-0.5993,-0.2595
94.132,-0.6026,-0.2598
94.162,-0.5984,-0.2599
94.192,-0.5995,-0.2579
94.221,-0.6004,-0.2599
94.255,-0.6015,-0.2609
94.281,-0.6026,-0.2564
94.31,-0.5996,-0.2562
94.34,-0.5987,-0.2574
94.369,-0.602,-0.2607
94.399,-0.5998,-0.2564
94.433,-0.5975,-0.2571
94.458,-0.6027,-0.2577
94.488,-0.5976,-0.2591
94.518,-0.5978,-0.258
94.548,-0.6013,-0.2602
94.577,-0.5992,-0.259
94.606,-0.5984,-0.2574
94.636,-0.6026,-0.2613
94.666,-0.6,-0.2607
94.695,-0.5995,-0.2618
94.726,-0.6023,-0.2595
94.755,-0.5991,-0.2608
94.784,-0.6007,-0.2606
94.814,-0.5988,-0.2601
94.844,-0.5995,-0.2606
94.873,-0.6012,-0.2617
94.904,-0.5984,-0.2618
94.933,-0.5999,-0.2592
94.962,-0.599,-0.2592
94.992,-0.5981,-0.2631
95.022,-0.5977,-0.2601
95.051,-0.599,-0.2586
95.082,-0.5979,-0.259
95.11,-0.602,-0.2635
95.14,-0.5987,-0.2598
95.17,-0.6009,-0.2638
95.2,-0.6014,-0.262
95.229,-0.5993,-0.2626
95.259,-0.6023,-0.2612
95.288,-0.5981,-0.2652
95.318,-0.6005,-0.2639
95.347,-0.5976,-0.2632
95.378,-0.5989,-0.2645
95.407,-0.5979,-0.2629
95.436,-0.6018,-0.2646
95.466,-0.6017,-0.2651
95.496,-0.603,-0.263
95.525,-0.6026,-0.2592
95.555,-0.5974,-0.2645
95.584,-0.5968,-0.265
95.615,-0.5995,-0.2632
95.644,-0.6039,-0.262
95.673,-0.5992,-0.2646
95.703,-0.5999,-0.2639
95.733,-0.5992,-0.2634
95.762,-0.5996,-0.2633
95.792,-0.5985,-0.267
95.822,-0.6028,-0.2657
95.851,-0.6013,-0.265
95.881,-0.6005,-0.2675
95.914,-0.6003,-0.2643
95.94,-0.5999,-0.2695
95.97,-0.5984,-0.2643
96,-0.6039,-0.2631
96.029,-0.5988,-0.2643
96.059,-0.6005,-0.2693
96.088,-0.5982,-0.2684
96.118,-0.5992,-0.2657
96.148,-0.6016,-0.2642
96.178,-0.5982,-0.2646
96.207,-0.6001,-0.2681
96.236,-0.5975,-0.2658
96.266,-0.6027,-0.2646
96.296,-0.6015,-0.2676
96.326,-0.601,-0.2676
96.355,-0.6008,-0.2631
96.385,-0.5998,-0.265
96.416,-0.6033,-0.2682
96.444,-0.5999,-0.2662
96.474,-0.6039,-0.2682
96.504,-0.5982,-0.2671
96.533,-0.6001,-0.2672
96.563,-0.601,-0.2692
96.591,-0.6029,-0.2654
96.622,-0.6051,-0.2653
96.652,-0.6072,-0.2664
96.681,-0.6056,-0.2709
96.712,-0.5996,-0.2673
96.741,-0.5991,-0.2673
96.77,-0.6013,-0.2648
96.8,-0.6053,-0.2734
96.83,-0.6136,-0.2752
96.859,-0.6119,-0.2723
96.888,-0.621,-0.2669
96.92,-0.6225,-0.2726
96.948,-0.6366,-0.2659
96.978,-0.6352,-0.2525
97.008,-0.6429,-0.2754
97.036,-0.6278,-0.2548
97.066,-0.6148,-0.2776
97.096,-0.6138,-0.2728
97.126,-0.6167,-0.2751
97.156,-0.6128,-0.2706
97.185,-0.6105,-0.2761
97.224,-0.6123,-0.2767
97.245,-0.6116,-0.2733
97.273,-0.613,-0.2757
97.303,-0.6122,-0.2754
97.334,-0.6165,-0.2718
97.362,-0.6186,-0.2717
97.393,-0.6191,-0.2741
97.422,-0.6178,-0.272
97.452,-0.6138,-0.2734
97.481,-0.6156,-0.2717
97.51,-0.6164,-0.2748
97.541,-0.6175,-0.2704
97.57,-0.6156,-0.2731
97.599,-0.6153,-0.2751
97.63,-0.6135,-0.2744
97.659,-0.61,-0.2744
97.689,-0.6154,-0.2762
97.718,-0.6132,-0.275
97.749,-0.6122,-0.2736
97.778,-0.6167,-0.2737
97.808,-0.6209,-0.2737
97.836,-0.6158,-0.2764
97.866,-0.6169,-0.2749
97.897,-0.6224,-0.2776
97.925,-0.6124,-0.2763
97.955,-0.6197,-0.277
97.986,-0.62,-0.2739
98.014,-0.6163,-0.283
98.044,-0.6165,-0.2915
98.074,-0.6128,-0.2946
98.103,-0.6176,-0.2856
98.133,-0.6173,-0.2814
98.162,-0.6132,-0.2975
98.192,-0.6154,-0.3034
98.222,-0.6158,-0.3084
98.252,-0.6191,-0.3035
98.281,-0.6201,-0.306
98.311,-0.6183,-0.3058
98.34,-0.6178,-0.3091
98.37,-0.6129,-0.3173
98.399,-0.6133,-0.3226
98.429,-0.6109,-0.3323
98.459,-0.61,-0.3329
98.488,-0.6139,-0.3336
98.518,-0.6136,-0.3272
98.549,-0.6119,-0.3414
98.578,-0.6178,-0.3537
98.607,-0.6137,-0.3573
98.637,-0.6106,-0.3382
98.666,-0.6181,-0.3204
98.697,-0.6092,-0.3057
98.725,-0.6093,-0.3109
98.755,-0.6118,-0.3165
98.786,-0.6146,-0.3163
98.815,-0.6147,-0.3029
98.844,-0.608,-0.2908
98.875,-0.6079,-0.3274
98.903,-0.6117,-0.4343
98.933,-0.6103,-0.6093
98.962,-0.6098,-0.6602
98.992,-0.614,-0.6128
99.022,-0.6085,-0.5223
99.06,-0.6109,-0.4281
99.092,-0.6069,-0.3621
99.11,-0.6117,-0.3321
99.14,-0.6102,-0.3182
99.17,-0.6081,-0.3116
99.199,-0.6144,-0.315
99.229,-0.6075,-0.3151
99.259,-0.614,-0.3149
99.288,-0.6136,-0.3105
99.318,-0.6153,-0.3463
99.348,-0.6194,-0.3766
99.377,-0.6119,-0.4155
99.408,-0.6181,-0.4464
99.436,-0.6097,-0.4441
99.471,-0.615,-0.43
99.496,-0.6137,-0.4019
99.525,-0.6103,-0.3625
99.555,-0.6143,-0.3273
99.585,-0.6135,-0.3126
99.616,-0.6164,-0.3057
99.644,-0.6086,-0.298
99.673,-0.6068,-0.3
99.704,-0.6006,-0.3003
99.732,-0.6065,-0.2963
99.762,-0.6082,-0.2916
99.792,-0.6061,-0.2944
99.822,-0.6057,-0.2907
99.851,-0.6026,-0.2925
99.882,-0.6034,-0.3004
99.91,-0.6011,-0.3058
99.94,-0.5981,-0.3139
99.97,-0.5974,-0.3207
99.999,-0.5954,-0.3302
100.029,-0.5985,-0.343
100.059,-0.5985,-0.3583
100.09,-0.5984,-0.3873
100.119,-0.5949,-0.4001
100.152,-0.5964,-0.393
100.177,-0.5959,-0.3707
100.207,-0.6026,-0.3634
100.237,-0.5988,-0.3633
100.268,-0.5951,-0.3545
100.296,-0.5943,-0.353
100.325,-0.5927,-0.3545
100.355,-0.5926,-0.3582
100.385,-0.5917,-0.3701
100.414,-0.5926,-0.3655
100.444,-0.6053,-0.3613
100.474,-0.6073,-0.3699
100.503,-0.6053,-0.3824
100.533,-0.6104,-0.3925
100.562,-0.6081,-0.3917
100.592,-0.6073,-0.3854
100.622,-0.6058,-0.3859
100.651,-0.609,-0.3973
100.681,-0.6032,-0.388
100.711,-0.5995,-0.3749
100.739,-0.6024,-0.3627
100.77,-0.602,-0.3477
100.8,-0.6012,-0.3416
100.829,-0.6017,-0.3272
100.859,-0.5957,-0.3251
100.887,-0.5976,-0.3199
100.917,-0.5947,-0.3215
100.948,-0.595,-0.3396
100.977,-0.5948,-0.3357
101.008,-0.6072,-0.3426
101.037,-0.602,-0.3221
101.066,-0.5975,-0.3113
101.096,-0.6024,-0.2966
101.126,-0.5986,-0.2863
101.155,-0.5991,-0.28
101.184,-0.5954,-0.2741
101.213,-0.5964,-0.277
101.244,-0.5985,-0.2839
101.274,-0.601,-0.2862
101.307,-0.6016,-0.2897
101.333,-0.5997,-0.2941
101.363,-0.5973,-0.2994
101.394,-0.5982,-0.3074
101.422,-0.5999,-0.3052
101.452,-0.601,-0.3079
101.483,-0.6005,-0.3036
101.51,-0.5973,-0.3044
101.539,-0.6037,-0.301
101.57,-0.5991,-0.3104
101.598,-0.6004,-0.3097
101.628,-0.6021,-0.3063
101.658,-0.6014,-0.296
101.688,-0.6039,-0.2876
101.718,-0.6051,-0.2812
101.748,-0.6025,-0.2804
101.777,-0.6009,-0.2822
101.806,-0.6038,-0.2802
101.837,-0.6031,-0.2808
101.866,-0.607,-0.274
101.897,-0.6034,-0.2662
101.925,-0.6004,-0.271
101.955,-0.6101,-0.2723
101.984,-0.6066,-0.2709
102.014,-0.607,-0.2737
102.044,-0.6039,-0.2765
102.074,-0.6072,-0.2789
102.104,-0.6007,-0.274
102.133,-0.6047,-0.2832
102.161,-0.6039,-0.2823
102.192,-0.603,-0.2914
102.221,-0.6028,-0.2938
102.251,-0.606,-0.2935
102.287,-0.6032,-0.2974
102.311,-0.6038,-0.2919
102.339,-0.6039,-0.2878
102.37,-0.6031,-0.2837
102.398,-0.6045,-0.2819
102.43,-0.601,-0.2815
102.458,-0.6024,-0.2751
102.487,-0.6064,-0.2706
102.517,-0.602,-0.2665
102.548,-0.6003,-0.2668
102.577,-0.6065,-0.2648
102.606,-0.6025,-0.2622
102.636,-0.6001,-0.2646
102.668,-0.6054,-0.2607
102.695,-0.6034,-0.2631
102.725,-0.6045,-0.2612
102.754,-0.6017,-0.2607
102.785,-0.6026,-0.2607
102.814,-0.6067,-0.2623
102.843,-0.6067,-0.263
102.874,-0.6032,-0.2616
102.902,-0.6018,-0.2646
102.935,-0.6062,-0.263
102.961,-0.6033,-0.2678
102.991,-0.6044,-0.2655
103.022,-0.6026,-0.2689
103.05,-0.6015,-0.2645
103.08,-0.6042,-0.2647
103.11,-0.601,-0.2683
103.139,-0.6042,-0.2657
103.169,-0.6026,-0.2687
103.199,-0.6016,-0.2687
103.229,-0.601,-0.2668
103.258,-0.6026,-0.2695
103.287,-0.6044,-0.2682
103.317,-0.605,-0.2715
103.347,-0.6037,-0.2743
103.382,-0.6056,-0.2734
103.406,-0.6051,-0.2724
103.436,-0.5993,-0.2689
103.469,-0.6039,-0.267
103.495,-0.6054,-0.272
103.528,-0.6026,-0.2664
103.554,-0.6035,-0.2658
103.584,-0.6049,-0.2673
103.617,-0.6028,-0.2671
103.643,-0.6004,-0.2678
103.673,-0.6051,-0.2662
103.702,-0.6018,-0.2684
103.732,-0.6044,-0.2645
103.762,-0.6062,-0.2711
103.791,-0.6047,-0.2664
103.821,-0.6015,-0.2654
103.851,-0.6044,-0.2677
103.88,-0.5996,-0.2681
103.91,-0.6024,-0.2679
103.948,-0.6053,-0.2631
103.969,-0.6059,-0.2685
103.999,-0.6057,-0.264
104.029,-0.6024,-0.2659
104.058,-0.6046,-0.2651
104.088,-0.6038,-0.2637
104.117,-0.603,-0.2629
104.147,-0.6043,-0.2617
104.177,-0.6058,-0.2648
104.206,-0.6021,-0.2678
104.236,-0.6014,-0.262
104.268,-0.6016,-0.2654
104.295,-0.6017,-0.2642
104.325,-0.5998,-0.2671
104.36,-0.6043,-0.2651
104.384,-0.6019,-0.268
104.414,-0.6061,-0.2663
104.444,-0.6117,-0.2661
104.473,-0.6056,-0.2799
104.505,-0.6155,-0.2687
104.532,-0.6202,-0.2649
104.562,-0.6092,-0.2683
104.592,-0.6037,-0.2673
104.621,-0.6051,-0.2667
104.651,-0.5995,-0.2636
104.681,-0.6004,-0.2656
104.71,-0.5976,-0.2699
104.74,-0.6041,-0.2676
104.77,-0.6028,-0.2662
104.799,-0.5982,-0.2678
104.829,-0.5963,-0.2712
104.859,-0.5979,-0.2662
104.888,-0.5844,-0.2673
104.918,-0.5949,-0.2672
104.948,-0.6029,-0.268
104.977,-0.5986,-0.2691
105.007,-0.5918,-0.2726
105.037,-0.5733,-0.2717
105.066,-0.546,-0.2704
105.096,-0.536,-0.2748
105.125,-0.5527,-0.2775
105.155,-0.5428,-0.2803
105.188,-0.5584,-0.2814
105.216,-0.5658,-0.2767
105.244,-0.5597,-0.2783
105.273,-0.5596,-0.2792
105.303,-0.5585,-0.2775
105.333,-0.5497,-0.2743
105.361,-0.5462,-0.2784
105.392,-0.548,-0.2771
105.422,-0.5548,-0.277
105.451,-0.5579,-0.2718
105.486,-0.5621,-0.2731
105.511,-0.5524,-0.2745
105.545,-0.5483,-0.2714
105.57,-0.5462,-0.2709
105.6,-0.5475,-0.2721
105.629,-0.5484,-0.2718
105.658,-0.5483,-0.2703
105.691,-0.5514,-0.272
105.718,-0.552,-0.2715
105.747,-0.5514,-0.2682
105.778,-0.554,-0.2685
105.807,-0.5531,-0.27
105.837,-0.5558,-0.2714
105.867,-0.5553,-0.2695
105.896,-0.5515,-0.2692
105.926,-0.5541,-0.2696
105.954,-0.5636,-0.2698
105.985,-0.5592,-0.2739
106.015,-0.5627,-0.2745
106.044,-0.5716,-0.2714
106.074,-0.5705,-0.2741
106.103,-0.566,-0.2786
106.132,-0.5853,-0.2816
106.163,-0.6542,-0.2756
106.192,-0.6497,-0.2764
106.221,-0.5678,-0.2779
106.251,-0.5661,-0.2799
106.281,-0.5705,-0.2767
106.311,-0.5755,-0.2778
106.341,-0.5726,-0.2742
106.37,-0.5774,-0.2737
106.401,-0.5768,-0.2729
106.43,-0.579,-0.2743
106.459,-0.5803,-0.2741
106.489,-0.5802,-0.2736
106.518,-0.5797,-0.2685
106.547,-0.5735,-0.2781
106.58,-0.575,-0.2709
106.612,-0.5932,-0.2727
106.636,-0.6624,-0.2722
106.666,-0.6559,-0.2759
106.695,-0.6433,-0.2707
106.726,-0.6458,-0.2687
106.755,-0.6502,-0.2695
106.785,-0.6369,-0.2709
106.814,-0.5981,-0.2712
106.844,-0.5865,-0.2725
106.873,-0.5793,-0.2703
106.903,-0.5921,-0.2744
106.932,-0.608,-0.2724
106.962,-0.6105,-0.2753
106.997,-0.6094,-0.2736
107.021,-0.5733,-0.2673
107.051,-0.558,-0.2743
107.082,-0.5633,-0.2691
107.11,-0.5689,-0.2739
107.14,-0.5779,-0.2689
107.17,-0.571,-0.2685
107.2,-0.583,-0.2739
107.229,-0.5916,-0.2736
107.258,-0.5896,-0.2625
107.29,-0.5931,-0.2736
107.318,-0.5924,-0.2759
107.347,-0.5978,-0.2769
107.377,-0.5959,-0.2742
107.409,-0.605,-0.2776
107.436,-0.616,-0.2707
107.466,-0.6081,-0.2713
107.495,-0.6092,-0.2747
107.533,-0.6202,-0.2699
107.555,-0.6216,-0.2753
107.584,-0.6344,-0.2794
107.615,-0.6581,-0.273
107.645,-0.666,-0.2772
107.674,-0.667,-0.2687
107.703,-0.6587,-0.2712
107.733,-0.6563,-0.274
107.762,-0.649,-0.2689
107.792,-0.6632,-0.2715
107.821,-0.6931,-0.2727
107.851,-0.6799,-0.2736
107.882,-0.657,-0.2738
107.91,-0.6472,-0.2711
107.94,-0.6481,-0.283
107.97,-0.6535,-0.2704
108,-0.6549,-0.2758
108.029,-0.6729,-0.2814
108.059,-0.6719,-0.2782
108.088,-0.6876,-0.2727
108.119,-0.7025,-0.2771
108.148,-0.7129,-0.2753
108.177,-0.6963,-0.2726
108.207,-0.7069,-0.2675
108.236,-0.7087,-0.2777
108.266,-0.7153,-0.2668
108.297,-0.7165,-0.2732
108.325,-0.7332,-0.2807
108.355,-0.6917,-0.2952
108.384,-0.6744,-0.2577
108.415,-0.7018,-0.282
108.444,-0.724,-0.3005
108.473,-0.7251,-0.2829
108.503,-0.6827,-0.41
108.533,-0.6775,-0.374
108.562,-0.7674,-0.845
108.592,-0.6817,-0.8456
108.621,-0.6684,-0.1882
108.652,-0.6671,-0.8705
108.681,-0.6697,-0.83
108.71,-0.7146,-0.8176
108.74,-0.1794,-0.3
108.77,-0.7793,0.1803
108.799,-0.6254,-0.6126
108.829,-0.6769,-0.3224
108.859,-0.7132,-0.3658
108.888,-0.7234,-0.965
108.917,-0.6993,-0.812
108.947,-0.5952,-0.5287
108.977,-0.5133,-0.7004
109.007,-0.7098,-0.5595
109.036,-0.6772,-0.8662
109.066,-0.6577,-0.5601
109.096,-0.7135,-0.4854
109.125,-0.6946,-0.7949
109.155,-0.6929,-0.5146
109.184,-0.6807,-0.9757
109.213,-0.6259,-0.2917
109.244,-0.6739,-0.5103
109.273,-0.6266,-0.849
109.303,-0.6747,-0.0525
109.332,-0.7024,-0.9757
109.362,-0.6801,-0.2959
109.392,-0.6369,-0.1098
109.421,-0.6855,-0.2241
109.451,-0.6479,-0.8365
109.482,-0.6714,-0.7956
109.509,-0.6752,-0.9757
109.539,-0.5942,-0.8243
109.569,-0.6692,-0.866
109.598,-0.51,-0.8243
109.628,-0.2746,-0.3728
109.658,-0.686,-0.8468
109.688,-0.6682,0.075
109.718,-0.346,-0.3309
109.747,-0.5998,-0.5329
109.777,-0.6787,-0.8013
109.807,-0.6715,0.0028
109.836,-0.7057,0.1803
109.866,-0.6684,-0.5128
109.894,-0.6903,-0.7837
109.924,-0.6711,-0.9296
109.955,-0.6629,0.1271
109.983,-0.3504,-0.8164
110.02,-0.6311,-0.5493
110.044,-0.6759,-0.8466
110.073,-0.5479,-0.181
110.104,-0.5728,-0.8317
110.133,-0.6429,-0.0998
110.161,-0.6754,-0.8506
110.192,-0.6093,-0.7275
110.221,-0.6675,-0.4636
110.251,-0.6004,-0.4709
110.281,-0.1794,-0.4582
110.31,-0.6693,-0.8129
110.34,-0.612,-0.8033
110.37,-0.6711,-0.2809
110.404,-0.6826,0.1803
110.429,-0.6651,-0.8428
110.458,-0.5933,-0.3447
110.487,-0.6319,-0.3117
110.517,-0.6668,-0.0495
110.546,-0.6822,-0.2482
110.576,-0.6277,-0.8005
110.606,-0.6641,-0.9072
110.636,-0.7273,-0.091
110.667,-0.6739,-0.2659
110.695,-0.6709,0.1803
110.732,-0.6744,-0.5375
110.755,-0.6761,-0.7842
110.785,-0.6797,-0.4933
110.814,-0.6509,-0.8516
110.843,-0.6991,-0.0825
110.873,-0.6705,-0.3217
110.902,-0.6499,-0.7999
110.934,-0.6825,-0.7422
110.961,-0.6259,-0.8114
110.991,-0.6211,-0.798
111.022,-0.5739,-0.4947
111.051,-0.6328,-0.8326
111.081,-0.1794,-0.9757
111.112,-0.1794,0.1803
111.14,-0.6785,-0.1068
111.169,-0.5898,-0.4612
111.2,-0.6739,-0.3389
111.228,-0.6753,-0.9757
111.258,-0.6828,-0.8597
111.287,-0.5892,-0.2672
111.317,-0.526,-0.1176
111.347,-0.1794,-0.2651
111.376,-0.1794,-0.3931
111.406,-0.6693,-0.388
111.436,-0.713,-0.4235
111.471,-0.6613,-0.8368
111.496,-0.5531,-0.5165
111.528,-0.6307,-0.858
111.554,-0.6535,-0.1714
111.584,-0.3694,-0.3679
111.613,-0.6107,-0.3671
111.644,-0.6147,-0.2265
111.673,-0.5995,-0.9337
111.702,-0.5068,-0.2881
111.732,-0.5438,-0.4139
111.762,-0.5916,-0.398
111.791,-0.4354,-0.3099
111.821,-0.5992,-0.2461
111.852,-0.5886,-0.225
111.881,-0.5395,-0.2382
111.91,-0.6314,-0.2667
111.94,-0.4117,-0.2968
111.969,-0.4143,-0.1753
112.002,-0.5286,-0.4131
112.03,-0.551,-0.3661
112.058,-0.2284,-0.2734
112.089,-0.5153,-0.3093
112.118,-0.5078,-0.2827
112.147,-0.5024,-0.2795
112.176,-0.4868,-0.2931
112.206,-0.4971,-0.2894
112.236,-0.502,-0.295
112.265,-0.5052,-0.2811
112.295,-0.5059,-0.2739
112.325,-0.4884,-0.2902
112.355,-0.4968,-0.2866
112.384,-0.4893,-0.2823
112.417,-0.5321,-0.2847
112.443,-0.5447,-0.2616
112.473,-0.5036,-0.2839
112.502,-0.5107,-0.2985
112.532,-0.5085,-0.2935
112.562,-0.5002,-0.2902
112.591,-0.523,-0.3005
112.621,-0.5085,-0.3014
112.651,-0.4951,-0.2916
112.68,-0.519,-0.2985
112.71,-0.5074,-0.2975
112.741,-0.5114,-0.2972
112.769,-0.5043,-0.2971
112.799,-0.507,-0.2898
112.829,-0.517,-0.295
112.858,-0.515,-0.2909
112.888,-0.5243,-0.2933
112.917,-0.5186,-0.3009
112.947,-0.5478,-0.2748
112.977,-0.5272,-0.2851
113.006,-0.5354,-0.2988
113.036,-0.5152,-0.2978
113.065,-0.5714,-0.3538
113.095,-0.5229,-0.2803
113.125,-0.54,-0.2443
113.156,-0.5654,-0.3413
113.185,-0.5421,-0.276
113.215,-0.6332,-0.2947
113.244,-0.5803,-0.8267
113.274,-0.541,-0.813
113.303,-0.6296,0.0714
113.332,-0.6603,-0.8077
113.362,-0.6809,-0.4777
113.393,-0.6413,-0.7138
113.425,-0.6694,0.1803
113.451,-0.6714,-0.5245
113.481,-0.6823,0.1803
113.51,-0.6697,-0.3937
113.54,-0.6758,-0.8411
113.57,-0.6966,-0.4884
113.599,-0.5205,-0.3171
113.629,-0.4936,-0.2918
113.658,-0.4885,-0.3017
113.69,-0.4837,-0.3002
113.718,-0.4784,-0.2997
113.747,-0.4793,-0.2999
113.777,-0.4767,-0.2975
113.807,-0.4708,-0.2967
113.836,-0.4713,-0.297
113.867,-0.4793,-0.2961
113.896,-0.4954,-0.2979
113.925,-0.4963,-0.2987
113.955,-0.4986,-0.2994
113.986,-0.5013,-0.3035
114.014,-0.5005,-0.2967
114.044,-0.4937,-0.2958
114.074,-0.4886,-0.2984
114.103,-0.4851,-0.3035
114.133,-0.4762,-0.3062
114.162,-0.4728,-0.3065
114.192,-0.4781,-0.3065
114.222,-0.4832,-0.3079
114.251,-0.4825,-0.3082
114.282,-0.4823,-0.3082
114.311,-0.4803,-0.3097
114.34,-0.48,-0.3069
114.369,-0.4799,-0.3069
114.399,-0.4804,-0.3082
114.429,-0.485,-0.3092
114.459,-0.4847,-0.3087
114.489,-0.4867,-0.3099
114.517,-0.4858,-0.3106
114.547,-0.4859,-0.3083
114.577,-0.4854,-0.3085
114.607,-0.484,-0.311
114.637,-0.4851,-0.3098
114.666,-0.4836,-0.3096
114.696,-0.4833,-0.3104
114.725,-0.485,-0.3146
114.755,-0.4856,-0.3112
114.784,-0.4832,-0.3126
114.815,-0.4859,-0.3106
114.843,-0.4837,-0.3101
114.874,-0.4837,-0.3118
114.903,-0.4817,-0.3126
114.933,-0.4796,-0.3118
114.963,-0.4793,-0.3138
114.999,-0.4773,-0.3112
115.021,-0.4676,-0.3123
115.052,-0.4653,-0.3102
115.081,-0.4637,-0.3129
115.111,-0.4628,-0.3112
115.14,-0.4737,-0.3092
115.169,-0.4732,-0.3108
115.199,-0.4962,-0.3115
115.228,-0.5349,-0.3081
115.258,-0.5606,-0.3112
115.288,-0.5556,-0.3111
115.318,-0.5587,-0.3138
115.348,-0.5785,-0.3134
115.378,-0.5799,-0.3118
115.406,-0.5846,-0.3152
115.436,-0.5786,-0.3128
115.467,-0.5741,-0.3131
115.496,-0.5602,-0.3128
115.525,-0.5378,-0.314
115.554,-0.5057,-0.3135
115.585,-0.5108,-0.3165
115.615,-0.521,-0.3171
115.644,-0.5262,-0.3168
115.674,-0.5203,-0.3179
115.703,-0.5496,-0.317
115.732,-0.5426,-0.3173
115.762,-0.5302,-0.3191
115.791,-0.4944,-0.3168
115.821,-0.4898,-0.317
115.851,-0.4858,-0.321
115.88,-0.4863,-0.3204
115.91,-0.5011,-0.3177
115.94,-0.5255,-0.317
115.97,-0.5443,-0.3213
115.999,-0.5658,-0.32
116.028,-0.5312,-0.3209
116.059,-0.549,-0.3225
116.089,-0.5844,-0.3223
116.118,-0.5887,-0.3201
116.148,-0.5714,-0.3205
116.178,-0.5592,-0.3246
116.206,-0.5747,-0.326
116.242,-0.5986,-0.3249
116.266,-0.6097,-0.323
116.295,-0.6124,-0.3234
116.325,-0.6184,-0.3259
116.354,-0.6297,-0.3253
116.384,-0.6482,-0.3243
116.414,-0.6628,-0.3242
116.449,-0.6328,-0.3254
116.473,-0.6189,-0.322
116.504,-0.622,-0.3232
116.533,-0.6586,-0.3242
116.563,-0.6946,-0.3259
116.592,-0.7221,-0.3248
116.621,-0.6801,-0.3258
116.651,-0.6313,-0.3257
116.68,-0.643,-0.3282
116.71,-0.6975,-0.3267
116.74,-0.7518,-0.3274
116.769,-0.8241,-0.3253
116.799,-0.8031,-0.329
116.829,-0.7984,-0.3298
116.858,-0.8898,-0.3268
116.888,-0.9151,-0.3282
116.917,-0.9387,-0.329
116.947,-0.9443,-0.3274
116.978,-0.9486,-0.3289
117.008,-0.9764,-0.3301
117.036,-1.0834,-0.3293
117.066,-1.1548,-0.3301
117.095,-1.1761,-0.3316
117.125,-1.1911,-0.3296
117.155,-1.223,-0.3326
117.184,-1.2671,-0.3278
117.214,-1.2146,-0.332
117.244,-1.0631,-0.3312
117.273,-0.9113,-0.3329
117.303,-0.8058,-0.3306
117.341,-0.7641,-0.3312
117.362,-0.691,-0.3322
117.391,-0.6662,-0.3338
117.421,-0.7227,-0.3323
117.451,-0.7478,-0.3331
117.48,-0.7605,-0.3353
117.51,-0.7649,-0.3321
117.539,-0.7977,-0.3333
117.569,-0.821,-0.3374
117.6,-0.7601,-0.3424
117.628,-0.6314,-0.3326
117.659,-0.6035,-0.3361
117.688,-0.5569,-0.3374
117.718,-0.5237,-0.3342
117.747,-0.5054,-0.3376
117.776,-0.4903,-0.3346
117.805,-0.4778,-0.3321
117.836,-0.5035,-0.3412
117.865,-0.5489,-0.325
117.895,-0.5944,-0.3315
117.924,-0.6626,-0.3282
117.954,-0.739,-0.34
117.984,-0.824,-0.3283
118.013,-0.8815,-0.3337
118.043,-0.9541,-0.3382
118.073,-1.0224,-0.3324
118.102,-1.0358,-0.3412
118.132,-1.0528,-0.3341
118.162,-1.0651,-0.3413
118.191,-1.1212,-0.3327
118.221,-1.1557,-0.3403
118.25,-1.1669,-0.338
118.28,-1.1819,-0.3357
118.31,-1.1743,-0.3348
118.339,-1.1669,-0.3341
118.368,-1.1521,-0.3356
118.397,-1.0355,-0.337
118.428,-0.826,-0.3351
118.458,-0.724,-0.338
118.487,-0.7308,-0.3331
118.517,-0.7213,-0.3328
118.547,-0.6905,-0.3356
118.576,-0.7303,-0.3334
118.606,-0.8237,-0.3369
118.64,-0.9563,-0.3349
118.665,-1.1112,-0.3345
118.694,-1.252,-0.3397
118.725,-1.4065,-0.3335
118.754,-1.5296,-0.3328
118.784,-1.6336,-0.3298
118.813,-1.6795,-0.3351
118.843,-1.6922,-0.336
118.873,-1.7139,-0.3404
118.901,-1.7319,-0.3359
118.931,-1.7285,-0.3331
118.962,-1.7371,-0.3373
118.991,-1.704,-0.3444
119.021,-1.6863,-0.3359
119.05,-1.67,-0.3384
119.079,-1.6278,-0.3447
119.11,-1.4901,-0.3428
119.139,-1.2773,-0.3395
119.169,-1.0675,-0.3354
119.2,-0.8904,-0.3374
119.228,-0.7628,-0.3332
119.258,-0.6414,-0.3401
119.286,-0.6195,-0.3384
119.316,-0.5941,-0.3365
119.346,-0.5772,-0.3395
119.375,-0.5732,-0.3392
119.406,-0.5733,-0.3414
119.436,-0.5638,-0.3406
119.465,-0.546,-0.3364
119.495,-0.5455,-0.339
119.524,-0.5384,-0.3383
119.553,-0.5321,-0.339
119.583,-0.5411,-0.3367
119.612,-0.5412,-0.3378
119.642,-0.5423,-0.3395
119.672,-0.5447,-0.3356
119.701,-0.5388,-0.3373
119.732,-0.5278,-0.3339
119.762,-0.5283,-0.3385
119.791,-0.5373,-0.3394
119.82,-0.5507,-0.3406
119.849,-0.5615,-0.3362
119.879,-0.5671,-0.3298
119.91,-0.5858,-0.3375
119.938,-0.595,-0.3329
119.969,-0.5993,-0.3397
119.998,-0.5822,-0.3382
120.03,-0.5902,-0.3391
120.058,-0.589,-0.3441
120.087,-0.5821,-0.3376
120.116,-0.5821,-0.3399
120.146,-0.5752,-0.335
120.176,-0.5669,-0.3418
120.206,-0.5508,-0.3422
120.236,-0.5435,-0.3418
120.265,-0.5517,-0.3394
120.295,-0.555,-0.3449
120.323,-0.5219,-0.3424
120.353,-0.4978,-0.3427
120.383,-0.4922,-0.343
120.413,-0.4952,-0.347
120.442,-0.4922,-0.3455
120.472,-0.4981,-0.3376
120.501,-0.5058,-0.3397
120.531,-0.5107,-0.3392
120.561,-0.5116,-0.3273
120.59,-0.5148,-0.3342
120.63,-0.5099,-0.3448
120.649,-0.5053,-0.3406
120.68,-0.5017,-0.3388
120.709,-0.5077,-0.3383
120.738,-0.506,-0.3359
120.768,-0.5108,-0.344
120.798,-0.5138,-0.3273
120.827,-0.5149,-0.335
120.857,-0.5118,-0.3362
120.887,-0.5045,-0.3437
120.917,-0.4974,-0.3438
120.946,-0.496,-0.3447
120.975,-0.4916,-0.3477
121.005,-0.4888,-0.3515
121.035,-0.487,-0.3463
121.064,-0.4876,-0.3458
121.094,-0.4859,-0.3421
121.124,-0.4866,-0.3456
121.153,-0.4905,-0.3465
121.183,-0.4872,-0.343
121.219,-0.4868,-0.3458
121.242,-0.4876,-0.3448
121.272,-0.4899,-0.3457
121.301,-0.502,-0.3477
121.331,-0.5064,-0.3475
121.361,-0.502,-0.3489
121.393,-0.486,-0.3497
121.42,-0.4876,-0.3481
121.449,-0.4817,-0.3488
121.48,-0.4847,-0.3474
121.514,-0.4818,-0.3537
121.538,-0.4898,-0.3528
121.569,-0.4806,-0.3499
121.598,-0.4821,-0.3485
121.627,-0.4833,-0.3497
121.657,-0.4864,-0.352
121.687,-0.4829,-0.3561
121.716,-0.4829,-0.3537
121.746,-0.4853,-0.3522
121.775,-0.4848,-0.3514
121.805,-0.4836,-0.3511
121.835,-0.4856,-0.3506
121.871,-0.4844,-0.3528
121.894,-0.4829,-0.3476
121.925,-0.4839,-0.3492
121.953,-0.4848,-0.3472
121.983,-0.4847,-0.353
122.013,-0.4869,-0.35
122.042,-0.4832,-0.3508
122.072,-0.4835,-0.352
122.101,-0.485,-0.3495
122.131,-0.4826,-0.3552
122.161,-0.4846,-0.3535
122.19,-0.4853,-0.3497
122.22,-0.4843,-0.3477
122.25,-0.4849,-0.351
122.279,-0.484,-0.3507
122.309,-0.4821,-0.3495
122.338,-0.4818,-0.3502
122.368,-0.4825,-0.3478
122.398,-0.4819,-0.3503
122.427,-0.482,-0.3489
122.457,-0.4828,-0.3491
122.487,-0.4868,-0.3486
122.516,-0.485,-0.3502
122.546,-0.4839,-0.3488
122.576,-0.4845,-0.3469
122.605,-0.4855,-0.3488
122.635,-0.4867,-0.348
122.664,-0.4867,-0.35
122.694,-0.4822,-0.3511
122.724,-0.4833,-0.3468
122.754,-0.4839,-0.3453
122.782,-0.4903,-0.3464
122.812,-0.5129,-0.3483
122.841,-0.5108,-0.3469
122.872,-0.4952,-0.3482
122.901,-0.4923,-0.3469
122.931,-0.4917,-0.3448
122.961,-0.4928,-0.3476
122.99,-0.4933,-0.3491
123.02,-0.4916,-0.35
123.05,-0.4919,-0.3477
123.078,-0.4937,-0.3459
123.109,-0.4911,-0.3476
123.137,-0.4899,-0.348
123.168,-0.4909,-0.3473
123.198,-0.4922,-0.3473
123.226,-0.4892,-0.3478
123.256,-0.4907,-0.3469
123.291,-0.4908,-0.3488
123.316,-0.4901,-0.3472
123.346,-0.4928,-0.3481
123.376,-0.4919,-0.3492
123.405,-0.4911,-0.3484
123.434,-0.4898,-0.3482
123.468,-0.4885,-0.3502
123.494,-0.4926,-0.3499
123.524,-0.4923,-0.3506
123.553,-0.4887,-0.3477
123.583,-0.4906,-0.3473
123.614,-0.4897,-0.3473
123.641,-0.4915,-0.3487
123.672,-0.4948,-0.3513
123.7,-0.4926,-0.3505
123.73,-0.4946,-0.348
123.761,-0.4894,-0.3479
123.792,-0.4971,-0.3486
123.824,-0.4941,-0.347
123.85,-0.4937,-0.3473
123.879,-0.4968,-0.3486
123.909,-0.4922,-0.3492
123.938,-0.498,-0.3501
123.967,-0.499,-0.3503
123.997,-0.4985,-0.3491
124.026,-0.4977,-0.3513
124.056,-0.4961,-0.3491
124.086,-0.5025,-0.3494
124.115,-0.5025,-0.3495
124.145,-0.4977,-0.3492
124.176,-0.4992,-0.3468
124.205,-0.5022,-0.3526
124.234,-0.5013,-0.3511
124.263,-0.5,-0.3496
124.294,-0.5024,-0.3496
124.323,-0.502,-0.3491
124.353,-0.499,-0.3514
124.384,-0.5006,-0.3485
124.416,-0.5015,-0.3492
124.441,-0.5046,-0.3488
124.471,-0.4983,-0.3507
124.501,-0.5005,-0.349
124.531,-0.5002,-0.3506
124.56,-0.4981,-0.3483
124.59,-0.4979,-0.3491
124.619,-0.4945,-0.3493
124.65,-0.4901,-0.35
124.678,-0.4938,-0.3503
124.709,-0.4935,-0.3511
124.737,-0.4947,-0.3496
124.767,-0.4951,-0.3497
124.797,-0.494,-0.3506
124.826,-0.4923,-0.3503
124.856,-0.4906,-0.3509
124.886,-0.5299,-0.3506
124.915,-0.6695,-0.35
124.945,-0.7154,-0.3486
124.975,-0.7419,-0.3491
125.005,-0.7013,-0.3523
125.036,-0.6824,-0.3506
125.068,-0.6745,-0.3528
125.094,-0.6653,-0.3526
125.124,-0.6474,-0.3514
125.152,-0.6072,-0.352
125.182,-0.5473,-0.3523
125.212,-0.5102,-0.3522
125.241,-0.5135,-0.3527
125.271,-0.5365,-0.3514
125.3,-0.5345,-0.3521
125.33,-0.4997,-0.3508
125.36,-0.492,-0.3504
125.389,-0.491,-0.3509
125.42,-0.4928,-0.3528
125.449,-0.491,-0.3516
125.478,-0.4922,-0.3499
125.508,-0.4931,-0.3509
125.538,-0.4944,-0.3532
125.567,-0.4907,-0.3516
125.597,-0.4933,-0.3513
125.626,-0.4961,-0.3508
125.656,-0.4905,-0.3505
125.686,-0.4928,-0.3523
125.715,-0.49,-0.3518
125.745,-0.4946,-0.3522
125.775,-0.4908,-0.3511
125.804,-0.4895,-0.3492
125.834,-0.4904,-0.3513
125.864,-0.4889,-0.3533
125.893,-0.4895,-0.3508
125.923,-0.4911,-0.3516
125.952,-0.4861,-0.3524
125.982,-0.4879,-0.3517
126.012,-0.4918,-0.3527
126.041,-0.4898,-0.3517
126.071,-0.4898,-0.3525
126.1,-0.4892,-0.3504
126.13,-0.4909,-0.3506
126.16,-0.489,-0.3522
126.189,-0.4898,-0.3543
126.219,-0.4903,-0.3551
126.249,-0.49,-0.3562
126.278,-0.49,-0.3562
126.31,-0.4878,-0.3557
126.337,-0.4901,-0.3539
126.367,-0.4885,-0.3569
126.397,-0.4879,-0.3537
126.426,-0.4892,-0.356
126.456,-0.4883,-0.356
126.486,-0.4836,-0.3563
126.515,-0.4859,-0.3569
126.551,-0.4862,-0.3553
126.574,-0.4881,-0.3555
126.604,-0.4907,-0.3534
126.634,-0.486,-0.3561
126.663,-0.4856,-0.3588
126.693,-0.4901,-0.3573
126.723,-0.4914,-0.3555
126.752,-0.4951,-0.3562
126.782,-0.4974,-0.3562
126.812,-0.4981,-0.3574
126.841,-0.4926,-0.3583
126.871,-0.4868,-0.3588
126.902,-0.4921,-0.3589
126.93,-0.4909,-0.3594
126.96,-0.4937,-0.3589
126.989,-0.4907,-0.359
127.019,-0.4957,-0.3588
127.049,-0.492,-0.3577
127.078,-0.4915,-0.3581
127.108,-0.4888,-0.3588
127.138,-0.4886,-0.3607
127.167,-0.4883,-0.3589
127.197,-0.4875,-0.3611
127.228,-0.4844,-0.3575
127.26,-0.4891,-0.3586
127.286,-0.4893,-0.3603
127.315,-0.492,-0.3581
127.345,-0.4893,-0.3602
127.375,-0.489,-0.3595
127.404,-0.4893,-0.3569
127.434,-0.4915,-0.3578
127.464,-0.4889,-0.3552
127.493,-0.49,-0.3581
127.522,-0.4906,-0.3622
127.552,-0.4889,-0.3645
127.581,-0.4885,-0.3622
127.611,-0.4902,-0.3578
127.641,-0.4886,-0.358
127.671,-0.4905,-0.3641
127.701,-0.4914,-0.3627
127.73,-0.4972,-0.3622
127.76,-0.4955,-0.3614
127.79,-0.4921,-0.3638
127.819,-0.4856,-0.3608
127.849,-0.4843,-0.3621
127.879,-0.4862,-0.3621
127.909,-0.4895,-0.3616
127.938,-0.4873,-0.3618
127.967,-0.4882,-0.3581
127.997,-0.4885,-0.3616
128.027,-0.4884,-0.3614
128.055,-0.4828,-0.3611
128.086,-0.4854,-0.3597
128.116,-0.4854,-0.3621
128.145,-0.4863,-0.3591
128.174,-0.4858,-0.3604
128.204,-0.4879,-0.36
128.234,-0.5058,-0.3604
128.263,-0.51,-0.3608
128.292,-0.5005,-0.3616
128.323,-0.4958,-0.3607
128.352,-0.4955,-0.3597
128.383,-0.4917,-0.36
128.411,-0.4901,-0.3622
128.44,-0.4876,-0.3567
128.471,-0.4903,-0.3597
128.501,-0.4896,-0.3593
128.53,-0.4925,-0.3597
128.559,-0.4922,-0.3599
128.592,-0.4941,-0.3568
128.619,-0.4946,-0.3588
128.649,-0.4978,-0.3595
128.679,-0.498,-0.3564
128.707,-0.495,-0.3567
128.737,-0.496,-0.3549
128.766,-0.493,-0.3566
128.796,-0.4945,-0.3534
128.826,-0.4941,-0.3514
128.855,-0.4955,-0.3533
128.885,-0.4925,-0.3531
128.915,-0.4943,-0.3531
128.945,-0.4917,-0.3538
128.975,-0.4923,-0.3544
129.003,-0.4917,-0.3531
129.034,-0.4892,-0.3528
129.062,-0.4917,-0.3569
129.092,-0.4898,-0.3534
129.124,-0.4908,-0.3552
129.151,-0.4886,-0.3546
129.181,-0.4889,-0.3555
129.217,-0.4867,-0.3547
129.24,-0.4882,-0.3561
129.273,-0.4872,-0.3539
129.299,-0.4894,-0.3551
129.329,-0.4835,-0.3536
129.359,-0.4872,-0.3557
129.389,-0.4882,-0.3527
129.421,-0.4865,-0.3545
129.449,-0.4872,-0.3534
129.477,-0.4825,-0.356
129.507,-0.484,-0.3556
129.536,-0.4834,-0.355
129.566,-0.4842,-0.3553
129.596,-0.4923,-0.3528
129.625,-0.5005,-0.355
129.655,-0.4972,-0.3544
129.684,-0.4977,-0.3558
129.718,-0.5022,-0.355
129.744,-0.5096,-0.3556
129.773,-0.5119,-0.3552
129.803,-0.5139,-0.3545
129.833,-0.5208,-0.3528
129.863,-0.5237,-0.3558
129.894,-0.5246,-0.3564
129.921,-0.529,-0.3567
129.951,-0.5361,-0.3593
129.981,-0.5355,-0.3585
130.01,-0.5436,-0.357
130.04,-0.5418,-0.3578
130.07,-0.5356,-0.3578
130.099,-0.5253,-0.3564
130.129,-0.5212,-0.3585
130.159,-0.5185,-0.3589
130.189,-0.5139,-0.3581
130.218,-0.5045,-0.358
130.248,-0.5027,-0.3567
130.277,-0.4982,-0.3574
130.307,-0.4954,-0.3582
130.336,-0.4961,-0.3586
130.366,-0.4965,-0.3608
130.396,-0.4952,-0.3599
130.426,-0.495,-0.3583
130.455,-0.4939,-0.3588
130.485,-0.4997,-0.3601
130.514,-0.504,-0.3592
130.544,-0.5049,-0.3572
130.574,-0.5104,-0.3577
130.604,-0.5179,-0.3588
130.633,-0.5196,-0.3599
130.662,-0.5191,-0.3596
130.692,-0.521,-0.36
130.722,-0.5182,-0.3617
130.752,-0.5144,-0.3596
130.781,-0.5043,-0.3603
130.811,-0.5009,-0.3597
130.839,-0.4919,-0.3621
130.87,-0.4889,-0.3628
130.9,-0.4819,-0.364
130.929,-0.4822,-0.3634
130.959,-0.4815,-0.3653
130.988,-0.4828,-0.3643
131.019,-0.4836,-0.3627
131.048,-0.483,-0.3635
131.077,-0.4812,-0.3645
131.107,-0.4826,-0.3648
131.137,-0.4854,-0.3614
131.166,-0.4868,-0.3645
131.196,-0.4871,-0.3639
131.226,-0.4843,-0.3629
131.255,-0.4857,-0.3635
131.287,-0.4866,-0.365
131.315,-0.4842,-0.3632
131.345,-0.4847,-0.3641
131.374,-0.4843,-0.3632
131.403,-0.4834,-0.3652
131.433,-0.4851,-0.3631
131.463,-0.4809,-0.3649
131.492,-0.4844,-0.3625
131.522,-0.4847,-0.3636
131.552,-0.4834,-0.366
131.581,-0.4815,-0.3631
131.611,-0.4793,-0.3643
131.641,-0.4829,-0.3637
131.67,-0.4799,-0.3637
131.699,-0.4789,-0.363
131.729,-0.4837,-0.3648
131.76,-0.4869,-0.3628
131.789,-0.4897,-0.3643
131.832,-0.4856,-0.3625
131.848,-0.4869,-0.3633
131.878,-0.4875,-0.364
131.907,-0.4873,-0.3616
131.936,-0.4875,-0.3648
131.966,-0.4895,-0.3633
131.995,-0.4872,-0.3644
132.025,-0.4854,-0.3632
132.054,-0.4848,-0.3636
132.085,-0.4861,-0.365
132.115,-0.4832,-0.3616
132.144,-0.4876,-0.3643
132.174,-0.4875,-0.3646
132.204,-0.4866,-0.3658
132.233,-0.484,-0.3625
132.262,-0.4857,-0.3642
132.292,-0.4861,-0.3655
132.321,-0.4837,-0.3642
132.353,-0.4848,-0.3646
132.381,-0.4861,-0.3661
132.411,-0.4878,-0.3663
132.44,-0.4879,-0.3643
132.47,-0.489,-0.3651
132.5,-0.4879,-0.3644
132.532,-0.4901,-0.3641
132.558,-0.49,-0.3649
132.589,-0.4898,-0.3663
132.618,-0.4862,-0.3645
132.648,-0.4923,-0.3663
132.68,-0.4872,-0.364
132.712,-0.4888,-0.3666
132.737,-0.4854,-0.3657
132.767,-0.4859,-0.3661
132.796,-0.4851,-0.365
132.826,-0.4864,-0.3658
132.856,-0.485,-0.3666
132.885,-0.4846,-0.3649
132.915,-0.4845,-0.3643
132.944,-0.4845,-0.3639
132.973,-0.485,-0.3658
133.003,-0.4839,-0.3666
133.032,-0.4822,-0.3664
133.062,-0.4848,-0.3667
133.092,-0.4873,-0.3664
133.122,-0.4851,-0.3641
133.151,-0.4842,-0.3671
133.181,-0.4825,-0.3647
133.21,-0.4804,-0.3654
133.241,-0.4811,-0.3649
133.27,-0.4823,-0.3664
133.306,-0.4792,-0.366
133.329,-0.4818,-0.3659
133.358,-0.4804,-0.3666
133.389,-0.4808,-0.365
133.419,-0.4809,-0.3671
133.448,-0.4811,-0.3671
133.477,-0.4785,-0.3652
133.507,-0.4786,-0.3661
133.537,-0.4779,-0.3632
133.571,-0.4794,-0.367
133.596,-0.4802,-0.3666
133.625,-0.4777,-0.3669
133.655,-0.4806,-0.367
133.684,-0.4831,-0.3674
133.714,-0.4804,-0.366
133.743,-0.4807,-0.3645
133.773,-0.4798,-0.3661
133.803,-0.4804,-0.366
133.832,-0.4792,-0.3641
133.862,-0.4802,-0.3646
133.893,-0.481,-0.3666
133.922,-0.4817,-0.365
133.952,-0.4832,-0.3665
133.982,-0.4853,-0.3682
134.011,-0.4864,-0.3671
134.041,-0.4842,-0.3657
134.069,-0.4811,-0.3682
134.099,-0.4781,-0.3677
134.132,-0.4792,-0.3671
134.158,-0.4825,-0.3671
134.188,-0.4835,-0.3671
134.218,-0.4852,-0.3686
134.247,-0.4867,-0.3672
134.277,-0.488,-0.3686
134.307,-0.4823,-0.3693
134.336,-0.4863,-0.3698
134.366,-0.4866,-0.3685
134.395,-0.4914,-0.3709
134.426,-0.4914,-0.3683
134.455,-0.4915,-0.368
134.484,-0.4893,-0.3675
134.514,-0.4901,-0.3697
134.543,-0.4878,-0.3683
134.573,-0.489,-0.3677
134.603,-0.4856,-0.3699
134.633,-0.4841,-0.369
134.662,-0.4846,-0.3705
134.692,-0.4838,-0.3683
134.721,-0.4808,-0.3731
134.751,-0.4811,-0.3713
134.784,-0.483,-0.3663
134.81,-0.4803,-0.368
134.84,-0.477,-0.3694
134.869,-0.4766,-0.3642
134.901,-0.4756,-0.3698
134.929,-0.4754,-0.3705
134.958,-0.4704,-0.3682
134.988,-0.4767,-0.3668
135.022,-0.475,-0.3697
135.047,-0.4725,-0.3662
135.077,-0.4674,-0.3675
135.106,-0.4698,-0.3691
135.137,-0.4687,-0.3679
135.166,-0.4744,-0.3691
135.196,-0.476,-0.3696
135.226,-0.4734,-0.3708
135.254,-0.471,-0.3669
135.284,-0.472,-0.366
135.314,-0.4658,-0.3667
135.344,-0.4685,-0.3665
135.373,-0.4771,-0.3649
135.403,-0.4796,-0.3663
135.432,-0.4767,-0.3699
135.462,-0.4784,-0.3686
135.493,-0.4791,-0.3654
135.521,-0.4758,-0.3668
135.551,-0.4803,-0.3683
135.58,-0.4761,-0.3701
135.618,-0.4762,-0.3687
135.64,-0.4735,-0.3686
135.669,-0.4757,-0.3678
135.699,-0.4837,-0.3704
135.738,-0.5736,-0.3683
135.758,-0.5545,-0.3691
135.788,-0.552,-0.3688
135.818,-0.4895,-0.3697
135.847,-0.4837,-0.3686
135.877,-0.4814,-0.3685
135.906,-0.4803,-0.3671
135.936,-0.483,-0.368
135.965,-0.4807,-0.3693
135.995,-0.4854,-0.3719
136.025,-0.4924,-0.3701
136.054,-0.4909,-0.3674
136.084,-0.4933,-0.3683
136.116,-0.4915,-0.3696
136.143,-0.4937,-0.368
136.173,-0.492,-0.3688
136.202,-0.4967,-0.368
136.234,-0.5114,-0.3713
136.263,-0.5356,-0.3704
136.291,-0.5605,-0.3696
136.321,-0.5945,-0.371
136.35,-0.6509,-0.3705
136.38,-0.673,-0.3724
136.41,-0.5917,-0.371
136.438,-0.5689,-0.3737
136.468,-0.5585,-0.3726
136.499,-0.5041,-0.3762
136.528,-0.4953,-0.3729
136.558,-0.4908,-0.372
136.592,-0.5066,-0.3712
136.617,-0.5101,-0.3749
136.647,-0.5189,-0.3741
136.676,-0.5383,-0.3744
136.707,-0.5581,-0.3744
136.734,-0.5345,-0.3738
136.764,-0.5131,-0.3741
136.795,-0.5015,-0.3748
136.823,-0.5043,-0.3737
136.853,-0.508,-0.3777
136.883,-0.5211,-0.3733
136.913,-0.5423,-0.3749
136.943,-0.5666,-0.3757
136.973,-0.5948,-0.3743
137.003,-0.605,-0.3755
137.031,-0.5996,-0.3754
137.06,-0.5987,-0.3774
137.091,-0.5996,-0.3781
137.12,-0.6402,-0.3763
137.152,-0.6693,-0.3772
137.181,-0.6587,-0.3758
137.211,-0.6523,-0.3779
137.239,-0.6283,-0.3765
137.269,-0.6014,-0.3765
137.297,-0.5899,-0.3779
137.327,-0.5671,-0.3796
137.356,-0.5594,-0.3777
137.387,-0.5553,-0.3785
137.417,-0.5569,-0.3776
137.446,-0.5489,-0.3805
137.476,-0.5483,-0.3779
137.504,-0.5563,-0.3813
137.535,-0.5713,-0.3816
137.564,-0.5623,-0.3814
137.593,-0.55,-0.3816
137.623,-0.554,-0.3818
137.652,-0.5395,-0.3824
137.682,-0.5363,-0.3839
137.713,-0.5766,-0.3842
137.742,-0.5657,-0.3852
137.772,-0.5503,-0.386
137.802,-0.5579,-0.3849
137.831,-0.5692,-0.3854
137.865,-0.6266,-0.3856
137.889,-0.7018,-0.386
137.919,-0.7343,-0.3843
137.948,-0.6588,-0.3872
137.978,-0.5774,-0.3852
138.012,-0.5505,-0.3872
138.037,-0.5528,-0.3871
138.067,-0.5544,-0.3861
138.096,-0.5329,-0.3871
138.127,-0.5219,-0.3881
138.157,-0.5212,-0.3868
138.185,-0.5283,-0.3881
138.215,-0.5359,-0.3863
138.244,-0.5523,-0.3897
138.275,-0.5739,-0.3876
138.305,-0.5797,-0.3907
138.334,-0.5871,-0.3917
138.364,-0.5911,-0.389
138.4,-0.5932,-0.3889
138.422,-0.5945,-0.3895
138.452,-0.589,-0.3892
138.483,-0.5855,-0.3912
138.511,-0.5873,-0.3928
138.541,-0.5882,-0.3905
138.571,-0.5825,-0.3896
138.6,-0.5896,-0.3901
138.629,-0.5916,-0.3915
138.659,-0.5975,-0.3915
138.689,-0.6001,-0.3904
138.718,-0.6053,-0.3937
138.748,-0.6112,-0.3927
138.777,-0.6151,-0.393
138.808,-0.6219,-0.3931
138.837,-0.6268,-0.3904
138.867,-0.6281,-0.3947
138.896,-0.6261,-0.3937
138.925,-0.6192,-0.3954
138.955,-0.6136,-0.3942
138.985,-0.6021,-0.3946
139.014,-0.5878,-0.3959
139.044,-0.5706,-0.3947
139.074,-0.5437,-0.394
139.104,-0.5368,-0.395
139.133,-0.5389,-0.3989
139.162,-0.5439,-0.397
139.192,-0.5462,-0.3964
139.224,-0.579,-0.3949
139.251,-0.5895,-0.3942
139.281,-0.5862,-0.3914
139.31,-0.5735,-0.395
139.34,-0.5628,-0.3941
139.37,-0.5481,-0.3964
139.399,-0.5464,-0.3975
139.429,-0.5489,-0.3952
139.459,-0.5487,-0.3977
139.491,-0.5465,-0.3964
139.518,-0.5442,-0.3967
139.547,-0.5475,-0.3961
139.577,-0.5483,-0.3965
139.607,-0.5572,-0.397
139.636,-0.5597,-0.3974
139.667,-0.5586,-0.3978
139.695,-0.5563,-0.3957
139.725,-0.5514,-0.3969
139.755,-0.5466,-0.3993
139.785,-0.5425,-0.3965
139.814,-0.5462,-0.3952
139.844,-0.5515,-0.3975
139.873,-0.555,-0.3971
139.903,-0.5578,-0.3975
139.933,-0.5474,-0.3965
139.963,-0.5456,-0.3959
139.992,-0.5523,-0.3948
140.02,-0.5575,-0.3956
140.052,-0.5627,-0.399
140.081,-0.5647,-0.3974
140.11,-0.5666,-0.4001
140.14,-0.5632,-0.398
140.17,-0.5684,-0.3979
140.199,-0.563,-0.3977
140.231,-0.5655,-0.3966
140.259,-0.5592,-0.3984
140.288,-0.5504,-0.3961
140.318,-0.5542,-0.3975
140.351,-0.557,-0.399
140.377,-0.5575,-0.3989
140.407,-0.5596,-0.4001
140.435,-0.5557,-0.3984
140.466,-0.5551,-0.3985
140.496,-0.5556,-0.3992
140.525,-0.5596,-0.3964
140.555,-0.5555,-0.3988
140.585,-0.5594,-0.4
140.614,-0.5689,-0.3985
140.648,-0.5832,-0.4001
140.676,-0.5936,-0.3978
140.704,-0.6057,-0.3978
140.732,-0.6084,-0.3975
140.762,-0.6095,-0.3986
140.792,-0.6159,-0.3977
140.821,-0.6147,-0.3995
140.853,-0.6149,-0.3963
140.881,-0.6202,-0.3991
140.91,-0.6261,-0.3994
140.94,-0.6261,-0.3995
140.97,-0.6197,-0.3997
141,-0.6137,-0.3983
141.029,-0.6145,-0.398
141.058,-0.6141,-0.3979
141.088,-0.6193,-0.3964
141.12,-0.6218,-0.3986
141.147,-0.6172,-0.3976
141.177,-0.6147,-0.4
141.206,-0.6127,-0.3979
141.238,-0.6102,-0.3991
141.266,-0.6104,-0.4001
141.295,-0.6094,-0.4008
141.329,-0.6125,-0.3976
141.357,-0.6093,-0.3968
141.383,-0.6112,-0.4016
141.414,-0.6136,-0.3984
141.442,-0.6134,-0.3992
141.472,-0.618,-0.3979
141.502,-0.6183,-0.3989
141.532,-0.6223,-0.4008
141.562,-0.6222,-0.399
141.591,-0.6182,-0.4018
141.621,-0.6167,-0.4006
141.656,-0.6231,-0.4009
141.68,-0.6174,-0.4026
141.71,-0.6228,-0.4009
141.741,-0.6189,-0.4025
141.769,-0.6191,-0.3996
141.798,-0.6186,-0.4012
141.827,-0.6165,-0.4008
141.858,-0.6192,-0.3998
141.888,-0.6161,-0.4037
141.917,-0.6158,-0.4031
141.947,-0.6136,-0.402
141.98,-0.6149,-0.4024
142.006,-0.612,-0.4021
142.036,-0.6155,-0.403
142.065,-0.614,-0.4024
142.094,-0.6128,-0.4037
142.125,-0.6126,-0.402
142.153,-0.6122,-0.4047
142.183,-0.6134,-0.4033
142.213,-0.6139,-0.4029
142.242,-0.6203,-0.4055
142.272,-0.6218,-0.4029
142.301,-0.6153,-0.4041
142.332,-0.6149,-0.4034
142.361,-0.6182,-0.403
142.39,-0.6178,-0.4059
142.42,-0.6145,-0.4051
142.45,-0.6114,-0.4045
142.487,-0.61,-0.4059
142.51,-0.6138,-0.4045
142.545,-0.6135,-0.4047
142.569,-0.61,-0.4017
142.599,-0.6092,-0.4039
142.627,-0.6116,-0.4027
142.657,-0.6129,-0.4061
142.687,-0.6081,-0.4061
142.719,-0.6103,-0.4034
142.746,-0.6081,-0.4021
142.775,-0.6067,-0.4045
142.805,-0.6051,-0.4029
142.835,-0.6077,-0.4075
142.865,-0.6044,-0.4072
142.894,-0.6027,-0.4055
142.925,-0.6069,-0.4029
142.954,-0.6016,-0.4064
142.983,-0.6023,-0.4042
143.012,-0.6027,-0.4049
143.044,-0.6075,-0.4033
143.072,-0.6111,-0.4042
143.101,-0.6106,-0.4059
143.131,-0.6124,-0.4042
143.162,-0.61,-0.4044
143.192,-0.6065,-0.4044
143.222,-0.6017,-0.4081
143.249,-0.6024,-0.407
143.28,-0.6025,-0.406
143.31,-0.6004,-0.4072
143.338,-0.6015,-0.4069
143.369,-0.6005,-0.4043
143.398,-0.6006,-0.405
143.43,-0.5993,-0.4061
143.457,-0.5985,-0.4051
143.486,-0.5963,-0.4034
143.516,-0.5953,-0.4053
143.546,-0.5953,-0.4028
143.575,-0.5967,-0.4058
143.608,-0.5955,-0.4069
143.635,-0.5944,-0.4061
143.665,-0.5935,-0.4058
143.695,-0.5927,-0.4046
143.723,-0.5924,-0.4067
143.754,-0.59,-0.4075
143.783,-0.5901,-0.4067
143.812,-0.5876,-0.4057
143.842,-0.5893,-0.405
143.871,-0.5912,-0.4074
143.903,-0.5946,-0.4069
143.933,-0.5962,-0.4042
143.96,-0.5922,-0.408
143.99,-0.5879,-0.4039
144.02,-0.5924,-0.4086
144.049,-0.5841,-0.4045
144.079,-0.5834,-0.4055
144.108,-0.5866,-0.4052
144.142,-0.5865,-0.4058
144.172,-0.586,-0.4067
144.197,-0.5894,-0.4077
144.227,-0.5832,-0.4067
144.257,-0.5805,-0.405
144.286,-0.5813,-0.4067
144.32,-0.5817,-0.4045
144.345,-0.5804,-0.405
144.375,-0.5794,-0.4063
144.405,-0.5791,-0.4058
144.434,-0.579,-0.4075
144.465,-0.579,-0.4052
144.494,-0.5758,-0.4048
144.523,-0.5783,-0.4059
144.553,-0.5738,-0.4073
144.582,-0.5721,-0.4075
144.612,-0.577,-0.4038
144.642,-0.5774,-0.4048
144.671,-0.5809,-0.4071
144.701,-0.5794,-0.4055
144.731,-0.5794,-0.4077
144.761,-0.5774,-0.4078
144.793,-0.5771,-0.4047
144.819,-0.5712,-0.4046
144.853,-0.5711,-0.4072
144.879,-0.576,-0.408
144.908,-0.5764,-0.4031
144.938,-0.5713,-0.4083
144.971,-0.5717,-0.4069
144.997,-0.5683,-0.4086
145.027,-0.5671,-0.4078
145.057,-0.5666,-0.4077
145.086,-0.5662,-0.4048
145.117,-0.5665,-0.4089
145.145,-0.5644,-0.4072
145.176,-0.5634,-0.407
145.205,-0.5645,-0.4072
145.234,-0.5663,-0.4094
145.264,-0.564,-0.4094
145.294,-0.5628,-0.4068
145.323,-0.5631,-0.4075
145.352,-0.5602,-0.4092
145.381,-0.5631,-0.4097
145.411,-0.5672,-0.4091
145.442,-0.5704,-0.4098
145.471,-0.5716,-0.4081
145.501,-0.5692,-0.408
145.531,-0.5663,-0.4069
145.56,-0.5679,-0.4081
145.59,-0.5656,-0.4098
145.62,-0.5601,-0.4079
145.649,-0.5594,-0.4072
145.678,-0.5638,-0.4091
145.707,-0.5615,-0.4084
145.737,-0.5594,-0.4086
145.768,-0.5592,-0.4098
145.797,-0.5553,-0.4094
145.827,-0.5531,-0.4097
145.857,-0.5534,-0.4082
145.886,-0.5565,-0.4066
145.916,-0.5553,-0.4102
145.945,-0.5531,-0.4096
145.975,-0.5563,-0.41
146.005,-0.5547,-0.4103
146.035,-0.5551,-0.4088
146.068,-0.5522,-0.4109
146.1,-0.55,-0.4105
146.123,-0.551,-0.408
146.153,-0.5495,-0.4089
146.184,-0.55,-0.4109
146.212,-0.5561,-0.4111
146.242,-0.5581,-0.4102
146.272,-0.559,-0.4112
146.302,-0.5591,-0.4129
146.331,-0.5575,-0.4091
146.36,-0.5562,-0.4122
146.389,-0.5545,-0.4103
146.419,-0.5537,-0.4131
146.45,-0.5523,-0.4116
146.479,-0.553,-0.4119
146.508,-0.5536,-0.411
146.537,-0.5533,-0.4103
146.567,-0.5501,-0.4114
146.598,-0.55,-0.4108
146.627,-0.5509,-0.4108
146.656,-0.5472,-0.4111
146.686,-0.5495,-0.4094
146.716,-0.547,-0.4134
146.746,-0.5453,-0.4106
146.775,-0.547,-0.4131
146.806,-0.5437,-0.4151
146.835,-0.5451,-0.4104
146.863,-0.5435,-0.4116
146.893,-0.5436,-0.4116
146.923,-0.5389,-0.4122
146.952,-0.5394,-0.4099
146.983,-0.5457,-0.4131
147.013,-0.5465,-0.4114
147.042,-0.5467,-0.4125
147.071,-0.5494,-0.4135
147.101,-0.5437,-0.4117
147.13,-0.5437,-0.4135
147.161,-0.5434,-0.4122
147.191,-0.5423,-0.4134
147.219,-0.5405,-0.4131
147.249,-0.5428,-0.4099
147.279,-0.5441,-0.4116
147.313,-0.5413,-0.4102
147.338,-0.5399,-0.4119
147.368,-0.5382,-0.4126
147.397,-0.5372,-0.4109
147.427,-0.5367,-0.4111
147.456,-0.5361,-0.412
147.486,-0.5403,-0.4109
147.519,-0.5387,-0.4112
147.546,-0.5379,-0.4128
147.575,-0.5345,-0.4127
147.604,-0.5355,-0.4094
147.634,-0.5342,-0.4128
147.664,-0.5349,-0.4098
147.693,-0.5326,-0.4143
147.723,-0.5331,-0.4144
147.755,-0.5356,-0.4123
147.782,-0.5384,-0.4152
147.812,-0.5425,-0.4149
147.842,-0.5421,-0.4131
147.871,-0.5418,-0.4109
147.901,-0.5406,-0.4145
147.931,-0.5408,-0.4136
147.961,-0.5382,-0.4111
147.99,-0.5363,-0.4114
148.019,-0.5349,-0.412
148.049,-0.5347,-0.414
148.079,-0.5342,-0.4125
148.108,-0.5367,-0.4125
148.138,-0.5354,-0.4131
148.17,-0.5324,-0.4135
148.198,-0.5316,-0.4106
148.227,-0.5304,-0.4133
148.257,-0.5326,-0.4124
148.286,-0.5311,-0.4118
148.316,-0.5292,-0.4129
148.35,-0.5289,-0.4144
148.375,-0.5307,-0.412
148.405,-0.5304,-0.4133
148.434,-0.5311,-0.4135
148.464,-0.5294,-0.4142
148.494,-0.529,-0.4108
148.524,-0.5268,-0.4134
148.553,-0.5276,-0.4128
148.582,-0.5332,-0.414
148.612,-0.5335,-0.4136
148.643,-0.5364,-0.4115
148.671,-0.5354,-0.4134
148.701,-0.5354,-0.412
148.732,-0.5316,-0.4131
148.767,-0.5331,-0.4125
148.791,-0.5306,-0.4151
148.82,-0.5324,-0.413
148.849,-0.5309,-0.4117
148.879,-0.5303,-0.4165
148.908,-0.5329,-0.4145
148.938,-0.5327,-0.414
148.968,-0.5295,-0.4134
148.997,-0.5316,-0.4145
149.027,-0.5284,-0.4135
149.057,-0.5303,-0.4138
149.086,-0.533,-0.4145
149.116,-0.527,-0.414
149.145,-0.5291,-0.4126
149.175,-0.5274,-0.4142
149.205,-0.5279,-0.4119
149.237,-0.5267,-0.4127
149.264,-0.5303,-0.4142
149.294,-0.5268,-0.4158
149.323,-0.532,-0.4139
149.353,-0.531,-0.4135
149.383,-0.5324,-0.4119
149.412,-0.5333,-0.4123
149.442,-0.5344,-0.4123
149.471,-0.5351,-0.4113
149.5,-0.5308,-0.4117
149.531,-0.5282,-0.413
149.56,-0.529,-0.4136
149.59,-0.5301,-0.4127
149.62,-0.5292,-0.4128
149.649,-0.5269,-0.4137
149.679,-0.5281,-0.4129
149.708,-0.5282,-0.4137
149.739,-0.5196,-0.4137
149.768,-0.5168,-0.4117
149.796,-0.5162,-0.4103
149.826,-0.516,-0.4144
149.857,-0.5199,-0.4112
149.886,-0.5156,-0.4136
149.916,-0.5198,-0.4104
149.946,-0.5161,-0.4124
149.98,-0.5182,-0.4121
150.005,-0.5152,-0.4124
150.034,-0.5176,-0.4134
150.065,-0.5206,-0.4125
150.094,-0.5211,-0.414
150.123,-0.5205,-0.4124
150.153,-0.5254,-0.4114
150.183,-0.5232,-0.4138
150.212,-0.5182,-0.4145
150.242,-0.5229,-0.4139
150.272,-0.5155,-0.4131
150.3,-0.5192,-0.4133
150.331,-0.5199,-0.4117
150.36,-0.5201,-0.4123
150.389,-0.5216,-0.4116
150.42,-0.5183,-0.4119
150.449,-0.5218,-0.4113
150.479,-0.5231,-0.4093
150.509,-0.5162,-0.4107
150.538,-0.5182,-0.4122
150.568,-0.5171,-0.4123
150.598,-0.5169,-0.411
150.628,-0.5133,-0.4135
150.657,-0.5163,-0.4126
150.685,-0.5188,-0.4109
150.72,-0.5168,-0.4119
150.746,-0.5176,-0.4149
150.774,-0.5168,-0.4141
150.804,-0.5222,-0.4108
150.835,-0.5243,-0.411
150.864,-0.5233,-0.4119
150.894,-0.5242,-0.4116
150.923,-0.5236,-0.4108
150.952,-0.5225,-0.4133
150.982,-0.5238,-0.4111
151.013,-0.5193,-0.4133
151.041,-0.5182,-0.4117
151.071,-0.5203,-0.4112
151.1,-0.5214,-0.4136
151.131,-0.5151,-0.4102
151.16,-0.5214,-0.412
151.189,-0.5184,-0.4117
151.22,-0.5156,-0.4121
151.249,-0.5169,-0.4136
151.278,-0.5185,-0.413
151.309,-0.5128,-0.409
151.337,-0.5163,-0.4114
151.367,-0.5133,-0.4138
151.397,-0.5159,-0.4127
151.427,-0.5136,-0.4128
151.456,-0.513,-0.4122
151.485,-0.5179,-0.411
151.516,-0.5149,-0.4136
151.545,-0.5169,-0.4134
151.574,-0.5252,-0.4131
151.605,-0.5157,-0.4127
151.635,-0.5186,-0.4132
151.664,-0.5179,-0.4114
151.693,-0.5143,-0.4133
151.73,-0.5172,-0.4153
151.752,-0.5148,-0.411
151.782,-0.5139,-0.413
151.812,-0.5145,-0.4124
151.841,-0.5155,-0.412
151.871,-0.5141,-0.4127
151.9,-0.5155,-0.4097
151.93,-0.5127,-0.4143
151.96,-0.51,-0.4111
151.999,-0.51,-0.414
152.019,-0.509,-0.4141
152.049,-0.5094,-0.4131
152.078,-0.5077,-0.4135
152.109,-0.508,-0.4134
152.138,-0.5071,-0.4128
152.168,-0.5067,-0.4134
152.197,-0.5071,-0.412
152.228,-0.5069,-0.4119
152.256,-0.5047,-0.4139
152.286,-0.5071,-0.4119
152.316,-0.5111,-0.4142
152.351,-0.5122,-0.4164
152.376,-0.5121,-0.413
152.404,-0.5107,-0.4147
152.434,-0.5127,-0.4141
152.465,-0.5096,-0.4137
152.493,-0.5118,-0.4142
152.523,-0.5108,-0.4144
152.553,-0.5082,-0.4116
152.582,-0.5077,-0.4134
152.612,-0.5061,-0.4144
152.641,-0.5077,-0.4158
152.672,-0.5052,-0.411
152.701,-0.5046,-0.4129
152.731,-0.5047,-0.412
152.76,-0.5031,-0.4125
152.794,-0.5053,-0.4143
152.819,-0.5029,-0.4142
152.849,-0.5024,-0.4146
152.879,-0.5033,-0.4144
152.908,-0.4999,-0.4142
152.944,-0.5012,-0.4131
152.968,-0.5005,-0.4142
152.997,-0.4995,-0.4146
153.028,-0.4998,-0.4142
153.057,-0.4981,-0.4142
153.086,-0.5033,-0.4147
153.117,-0.5024,-0.4145
153.147,-0.5042,-0.4132
153.175,-0.5055,-0.4154
153.205,-0.5097,-0.4153
153.234,-0.5086,-0.415
153.264,-0.5059,-0.4148
153.295,-0.5055,-0.4144
153.322,-0.5045,-0.4141
153.352,-0.5021,-0.4167
153.383,-0.5033,-0.4146
153.413,-0.5034,-0.4136
153.442,-0.5004,-0.4167
153.472,-0.5036,-0.4148
153.501,-0.502,-0.4159
153.532,-0.5003,-0.4163
153.561,-0.5013,-0.4167
153.59,-0.5017,-0.4154
153.62,-0.4987,-0.4142
153.65,-0.498,-0.4147
153.679,-0.4964,-0.4149
153.709,-0.5003,-0.415
153.738,-0.498,-0.4148
153.768,-0.4997,-0.4131
153.798,-0.4969,-0.4141
153.827,-0.4926,-0.4177
153.857,-0.4989,-0.4135
153.887,-0.498,-0.4156
153.916,-0.4981,-0.4183
153.946,-0.5033,-0.4155
153.976,-0.506,-0.4172
154.005,-0.5066,-0.4148
154.035,-0.5035,-0.4147
154.065,-0.5037,-0.4167
154.094,-0.5018,-0.4144
154.124,-0.5026,-0.4134
154.154,-0.5007,-0.4156
154.184,-0.4988,-0.4154
154.213,-0.5022,-0.417
154.243,-0.4967,-0.4162
154.272,-0.4986,-0.4159
154.302,-0.4971,-0.4163
154.331,-0.4963,-0.4153
154.36,-0.4997,-0.4171
154.4,-0.4977,-0.4162
154.42,-0.4943,-0.4161
154.45,-0.498,-0.4158
154.48,-0.4933,-0.4181
154.509,-0.495,-0.4172
154.539,-0.4958,-0.4149
154.569,-0.497,-0.4153
154.598,-0.4952,-0.4158
154.628,-0.4939,-0.4143
154.657,-0.4966,-0.4168
154.687,-0.494,-0.4166
154.717,-0.4989,-0.4175
154.746,-0.5035,-0.4166
154.775,-0.5044,-0.4169
154.806,-0.5039,-0.4189
154.835,-0.5012,-0.4178
154.865,-0.4944,-0.4189
154.895,-0.4813,-0.4183
154.924,-0.4696,-0.4153
154.954,-0.4621,-0.4166
154.99,-0.4506,-0.4182
155.013,-0.4458,-0.4169
155.043,-0.4431,-0.417
155.072,-0.4397,-0.4157
155.102,-0.4384,-0.4189
155.131,-0.4348,-0.4179
155.16,-0.4323,-0.4177
155.191,-0.4229,-0.419
155.22,-0.4186,-0.4146
155.249,-0.4168,-0.4172
155.279,-0.415,-0.4172
155.31,-0.4157,-0.4184
155.339,-0.4112,-0.4203
155.37,-0.4164,-0.4173
155.398,-0.4013,-0.4158
155.427,-0.3937,-0.4164
155.458,-0.3804,-0.4166
155.487,-0.3806,-0.418
155.52,-0.3868,-0.417
155.549,-0.3909,-0.4148
155.576,-0.3911,-0.4164
155.606,-0.3937,-0.4188
155.635,-0.3945,-0.4185
155.667,-0.3968,-0.4188
155.694,-0.3959,-0.4173
155.724,-0.39,-0.4207
155.753,-0.3866,-0.4188
155.784,-0.3865,-0.4177
155.814,-0.3857,-0.4194
155.843,-0.3847,-0.4177
155.873,-0.3795,-0.4191
155.901,-0.3644,-0.4193
155.932,-0.3565,-0.4194
155.963,-0.3561,-0.4185
155.99,-0.3611,-0.4178
156.02,-0.3761,-0.4194
156.051,-0.3755,-0.4165
156.079,-0.371,-0.42
156.109,-0.3634,-0.4195
156.138,-0.3652,-0.4211
156.168,-0.3712,-0.422
156.199,-0.3733,-0.424
156.227,-0.373,-0.4214
156.257,-0.3733,-0.4215
156.287,-0.3733,-0.4236
156.316,-0.3719,-0.4224
156.35,-0.3719,-0.4201
156.376,-0.3817,-0.4146
156.405,-0.3869,-0.4143
156.435,-0.3939,-0.4143
156.464,-0.4033,-0.4156
156.494,-0.414,-0.4145
156.524,-0.417,-0.4129
156.554,-0.4126,-0.4167
156.583,-0.406,-0.4132
156.614,-0.4099,-0.4144
156.642,-0.4064,-0.418
156.673,-0.4084,-0.4164
156.702,-0.4079,-0.4176
156.732,-0.4071,-0.4169
156.762,-0.4079,-0.4177
156.791,-0.4076,-0.4203
156.82,-0.406,-0.4223
156.85,-0.4029,-0.4241
156.88,-0.3983,-0.422
156.909,-0.3943,-0.4239
156.939,-0.3979,-0.4234
156.969,-0.4036,-0.421
156.998,-0.4017,-0.4163
157.028,-0.4013,-0.4159
157.057,-0.3913,-0.4144
157.087,-0.3827,-0.4136
157.117,-0.3825,-0.4098
157.147,-0.3847,-0.4088
157.178,-0.3918,-0.4083
157.206,-0.4057,-0.4078
157.235,-0.4098,-0.4106
157.265,-0.4032,-0.4107
157.295,-0.4032,-0.4114
157.324,-0.4106,-0.4167
157.354,-0.4176,-0.4145
157.383,-0.4141,-0.4172
157.413,-0.4079,-0.4183
157.444,-0.4121,-0.418
157.473,-0.41,-0.4181
157.503,-0.4125,-0.4192
157.532,-0.4146,-0.4203
157.561,-0.4059,-0.423
157.591,-0.4102,-0.4206
157.621,-0.4238,-0.42
157.65,-0.4219,-0.4224
157.68,-0.4322,-0.4225
157.71,-0.4416,-0.4192
157.739,-0.4309,-0.4189
157.77,-0.4219,-0.4101
157.798,-0.4285,-0.4115
157.828,-0.4211,-0.414
157.858,-0.4218,-0.4174
157.887,-0.4197,-0.412
157.917,-0.4159,-0.4239
157.947,-0.4068,-0.4106
157.976,-0.3962,-0.4194
158.006,-0.382,-0.4204
158.036,-0.3665,-0.4207
158.064,-0.3662,-0.4187
158.094,-0.3664,-0.4197
158.124,-0.3696,-0.4181
158.154,-0.3703,-0.421
158.188,-0.3684,-0.4186
158.213,-0.3674,-0.4206
158.244,-0.3714,-0.418
158.273,-0.3749,-0.421
158.302,-0.3728,-0.4223
158.332,-0.3763,-0.4206
158.362,-0.3775,-0.42
158.394,-0.3808,-0.4218
158.421,-0.374,-0.4205
158.451,-0.3744,-0.4206
158.48,-0.3747,-0.4187
158.51,-0.3771,-0.4186
158.539,-0.3768,-0.4226
158.569,-0.3742,-0.4202
158.599,-0.3702,-0.4214
158.628,-0.3722,-0.4192
158.658,-0.3698,-0.4213
158.688,-0.3744,-0.4217
158.717,-0.368,-0.4213
158.747,-0.3694,-0.4198
158.776,-0.3708,-0.4188
158.807,-0.3772,-0.4211
158.837,-0.3867,-0.4205
158.865,-0.4056,-0.4211
158.895,-0.4074,-0.4202
158.925,-0.4115,-0.4217
158.953,-0.4079,-0.4216
158.983,-0.3902,-0.4194
159.014,-0.3835,-0.4196
159.043,-0.3811,-0.4204
159.073,-0.3765,-0.422
159.102,-0.3594,-0.4205
159.132,-0.331,-0.4188
159.162,-0.3231,-0.4184
159.191,-0.3269,-0.4188
159.221,-0.3221,-0.4177
159.251,-0.3275,-0.4164
159.279,-0.3321,-0.4193
159.31,-0.3255,-0.4184
159.339,-0.321,-0.4192
159.369,-0.3222,-0.4167
159.399,-0.3239,-0.42
159.428,-0.3264,-0.4161
159.458,-0.33,-0.417
159.49,-0.3258,-0.4183
159.516,-0.3285,-0.4186
159.546,-0.3258,-0.419
159.576,-0.3279,-0.4211
159.605,-0.3263,-0.4158
159.636,-0.3228,-0.4174
159.665,-0.3224,-0.4172
159.695,-0.3214,-0.4171
159.725,-0.3189,-0.419
159.754,-0.3188,-0.4185
159.784,-0.3184,-0.4188
159.822,-0.3224,-0.4198
159.842,-0.3186,-0.4202
159.872,-0.3173,-0.4186
159.903,-0.3301,-0.4184
159.932,-0.3348,-0.4189
159.961,-0.3443,-0.4204
159.99,-0.3473,-0.4217
160.02,-0.3542,-0.4219
160.051,-0.352,-0.4257
160.08,-0.3414,-0.4247
160.11,-0.3354,-0.4249
160.14,-0.3297,-0.4242
160.17,-0.3221,-0.4251
160.204,-0.3189,-0.4254
160.229,-0.3175,-0.4262
160.258,-0.3172,-0.4256
160.288,-0.3175,-0.4253
160.317,-0.3153,-0.4235
160.346,-0.3174,-0.4259
160.376,-0.3177,-0.4275
160.405,-0.32,-0.4262
160.436,-0.3157,-0.4246
160.465,-0.3157,-0.4259
160.495,-0.3205,-0.4274
160.524,-0.3155,-0.424
160.553,-0.3177,-0.4258
160.583,-0.3184,-0.4282
160.614,-0.32,-0.4277
160.643,-0.3194,-0.4284
160.68,-0.3208,-0.4292
160.703,-0.3201,-0.4286
160.732,-0.3191,-0.4265
160.761,-0.3166,-0.4252
160.795,-0.3137,-0.4253
160.823,-0.3162,-0.426
160.85,-0.3106,-0.4283
160.879,-0.3127,-0.4279
160.909,-0.3174,-0.4285
160.94,-0.317,-0.4285
160.968,-0.3122,-0.4269
160.999,-0.312,-0.426
161.028,-0.3113,-0.4275
161.057,-0.3106,-0.429
161.088,-0.3155,-0.4253
161.117,-0.3143,-0.4279
161.146,-0.3117,-0.428
161.176,-0.3154,-0.4283
161.205,-0.3129,-0.4288
161.235,-0.3124,-0.4304
161.265,-0.313,-0.4262
161.294,-0.3152,-0.4265
161.326,-0.3322,-0.4277
161.354,-0.3639,-0.4291
161.383,-0.3777,-0.4299
161.413,-0.3866,-0.4285
161.443,-0.3933,-0.4314
161.473,-0.3912,-0.4296
161.502,-0.3916,-0.4283
161.532,-0.3922,-0.4313
161.561,-0.3879,-0.4305
161.591,-0.3857,-0.4299
161.624,-0.3745,-0.4291
161.65,-0.3641,-0.43
161.68,-0.3627,-0.4296
161.709,-0.367,-0.4306
161.739,-0.3811,-0.4301
161.769,-0.3885,-0.4304
161.798,-0.3888,-0.4286
161.829,-0.3893,-0.4293
161.857,-0.3879,-0.4307
161.887,-0.386,-0.4311
161.917,-0.3896,-0.4307
161.946,-0.3778,-0.429
161.976,-0.3374,-0.4309
162.006,-0.3442,-0.4299
162.035,-0.323,-0.4282
162.065,-0.3296,-0.4313
162.095,-0.349,-0.4298
162.124,-0.3476,-0.4314
162.155,-0.3488,-0.429
162.184,-0.3847,-0.4297
162.213,-0.3792,-0.4282
162.243,-0.3579,-0.4297
162.273,-0.346,-0.4283
162.308,-0.3441,-0.43
162.332,-0.347,-0.43
162.361,-0.3556,-0.43
162.391,-0.3614,-0.43
162.42,-0.3695,-0.4312
162.45,-0.3677,-0.4305
162.48,-0.3718,-0.4297
162.508,-0.3712,-0.4309
162.539,-0.3775,-0.433
162.569,-0.3844,-0.4316
162.602,-0.3953,-0.4329
162.628,-0.4048,-0.4275
162.658,-0.4069,-0.4304
162.687,-0.3855,-0.4329
162.717,-0.3531,-0.4293
162.746,-0.3529,-0.4312
162.776,-0.3472,-0.4311
162.807,-0.3611,-0.4307
162.835,-0.3961,-0.4308
162.865,-0.4099,-0.4329
162.895,-0.4272,-0.4336
162.924,-0.4442,-0.4321
162.954,-0.4517,-0.432
162.984,-0.4541,-0.4321
163.013,-0.4616,-0.4337
163.043,-0.4611,-0.4325
163.073,-0.4593,-0.434
163.103,-0.4641,-0.4349
163.131,-0.471,-0.4327
163.161,-0.4745,-0.4334
163.191,-0.4785,-0.4332
163.221,-0.4789,-0.4327
163.251,-0.4765,-0.4346
163.28,-0.4798,-0.4322
163.312,-0.481,-0.4338
163.339,-0.4872,-0.4361
163.37,-0.4876,-0.4354
163.399,-0.4964,-0.4379
163.427,-0.5041,-0.4346
163.462,-0.5095,-0.4363
163.491,-0.5086,-0.4358
163.517,-0.5064,-0.4363
163.547,-0.5113,-0.4358
163.575,-0.5193,-0.4343
163.606,-0.5215,-0.4336
163.636,-0.5183,-0.4363
163.665,-0.5166,-0.436
163.695,-0.5105,-0.4366
163.725,-0.5091,-0.4374
163.754,-0.5111,-0.4354
163.785,-0.5147,-0.4354
163.814,-0.5105,-0.4383
163.842,-0.5052,-0.4346
163.873,-0.5022,-0.4371
163.903,-0.5068,-0.4368
163.932,-0.5092,-0.4357
163.962,-0.5169,-0.4366
163.992,-0.5183,-0.4342
164.02,-0.5226,-0.4368
164.051,-0.5179,-0.4384
164.08,-0.5223,-0.4373
164.11,-0.5174,-0.439
164.14,-0.519,-0.4379
164.169,-0.517,-0.4358
164.199,-0.5179,-0.436
164.228,-0.5144,-0.4363
164.258,-0.5159,-0.4384
164.287,-0.5141,-0.4403
164.317,-0.5155,-0.438
164.346,-0.5102,-0.4376
164.376,-0.511,-0.4391
164.406,-0.5112,-0.4374
164.435,-0.5072,-0.4398
164.466,-0.505,-0.4373
164.496,-0.5038,-0.4391
164.525,-0.5057,-0.4391
164.555,-0.5078,-0.4362
164.583,-0.505,-0.4392
164.613,-0.5034,-0.4374
164.644,-0.5024,-0.4388
164.672,-0.5019,-0.4388
164.703,-0.5022,-0.4389
164.733,-0.5043,-0.4394
164.764,-0.5038,-0.4393
164.791,-0.5093,-0.4405
164.821,-0.5048,-0.4379
164.851,-0.5034,-0.4399
164.88,-0.5023,-0.4396
164.91,-0.4996,-0.4379
164.939,-0.5022,-0.4395
164.969,-0.497,-0.4379
165,-0.4994,-0.4378
165.029,-0.5022,-0.4363
165.062,-0.4991,-0.4383
165.088,-0.4985,-0.4383
165.117,-0.501,-0.4377
165.147,-0.4988,-0.4379
165.176,-0.4972,-0.4413
165.206,-0.4961,-0.4397
165.244,-0.4945,-0.4386
165.265,-0.4955,-0.4402
165.295,-0.4964,-0.4392
165.325,-0.4953,-0.4376
165.354,-0.4964,-0.4396
165.385,-0.4949,-0.4387
165.414,-0.4928,-0.4376
165.444,-0.4944,-0.4402
165.474,-0.4938,-0.4398
165.503,-0.497,-0.4392
165.535,-0.4978,-0.4392
165.563,-0.4972,-0.4383
165.591,-0.4977,-0.439
165.621,-0.4964,-0.4379
165.651,-0.4952,-0.4391
165.68,-0.4945,-0.4383
165.71,-0.4951,-0.4408
165.74,-0.4945,-0.4411
165.77,-0.4984,-0.439
165.799,-0.4944,-0.441
165.83,-0.4971,-0.4396
165.858,-0.4969,-0.4404
165.888,-0.4952,-0.4388
165.917,-0.4952,-0.4378
165.947,-0.4911,-0.4383
165.977,-0.4912,-0.4405
166.008,-0.4952,-0.4401
166.037,-0.492,-0.4405
166.066,-0.492,-0.4384
166.095,-0.4934,-0.4379
166.125,-0.4926,-0.4383
166.156,-0.4926,-0.438
166.184,-0.49,-0.4379
166.214,-0.4912,-0.439
166.243,-0.4887,-0.4391
166.277,-0.4905,-0.4368
166.303,-0.494,-0.4386
166.333,-0.4969,-0.4398
166.363,-0.4988,-0.4393
166.392,-0.4995,-0.4391
166.423,-0.4984,-0.4374
166.451,-0.497,-0.4388
166.481,-0.4966,-0.4396
166.51,-0.4973,-0.4396
166.54,-0.4933,-0.4424
166.569,-0.4903,-0.4401
166.599,-0.4831,-0.4381
166.629,-0.4825,-0.4399
166.662,-0.4789,-0.4409
166.688,-0.4765,-0.4382
166.718,-0.4693,-0.4374
166.747,-0.4635,-0.4375
166.778,-0.4627,-0.4401
166.814,-0.4638,-0.4403
166.836,-0.4638,-0.439
166.866,-0.4597,-0.4383
166.895,-0.4589,-0.4398
166.926,-0.4572,-0.439
166.957,-0.4587,-0.4378
166.984,-0.4571,-0.442
167.018,-0.4562,-0.4396
167.047,-0.4591,-0.4394
167.074,-0.4582,-0.439
167.103,-0.4577,-0.4393
167.132,-0.458,-0.4382
167.162,-0.4654,-0.4407
167.192,-0.4666,-0.4389
167.221,-0.4666,-0.4383
167.251,-0.466,-0.4401
167.281,-0.4667,-0.4383
167.31,-0.4643,-0.4391
167.34,-0.4619,-0.4397
167.37,-0.4635,-0.4411
167.399,-0.4652,-0.4412
167.431,-0.4649,-0.4379
167.458,-0.4642,-0.4414
167.488,-0.4637,-0.4398
167.519,-0.4628,-0.4398
167.546,-0.4662,-0.4407
167.576,-0.4627,-0.4413
167.607,-0.4648,-0.4393
167.635,-0.4638,-0.4405
167.666,-0.4662,-0.4399
167.696,-0.4629,-0.4394
167.725,-0.4645,-0.4411
167.755,-0.4638,-0.4379
167.784,-0.4629,-0.4414
167.814,-0.4634,-0.4407
167.843,-0.4637,-0.4409
167.872,-0.4608,-0.4403
167.903,-0.4624,-0.4414
167.932,-0.4637,-0.4417
167.961,-0.4686,-0.4393
167.992,-0.4712,-0.4423
168.021,-0.4738,-0.4419
168.051,-0.471,-0.4399
168.081,-0.4695,-0.4395
168.11,-0.4675,-0.4409
168.14,-0.4702,-0.4412
168.17,-0.4695,-0.4413
168.198,-0.4642,-0.4402
168.228,-0.4649,-0.4426
168.258,-0.467,-0.4414
168.287,-0.4695,-0.4413
168.317,-0.4676,-0.44
168.347,-0.4682,-0.4431
168.378,-0.4678,-0.4402
168.407,-0.4649,-0.4413
168.436,-0.4676,-0.4416
168.466,-0.4662,-0.4432
168.496,-0.4645,-0.4416
168.525,-0.4673,-0.4418
168.555,-0.4627,-0.4437
168.584,-0.4625,-0.4409
168.613,-0.4634,-0.4427
168.643,-0.4628,-0.4387
168.674,-0.4613,-0.4422
168.703,-0.4602,-0.4405
168.733,-0.4631,-0.4413
168.762,-0.4647,-0.442
168.791,-0.4685,-0.4409
168.822,-0.4696,-0.4415
168.85,-0.4679,-0.4421
168.881,-0.4652,-0.4403
168.911,-0.4671,-0.4413
168.943,-0.4659,-0.4405
168.97,-0.4671,-0.4432
168.999,-0.4651,-0.4394
169.028,-0.463,-0.4433
169.058,-0.4638,-0.4415
169.088,-0.4659,-0.4412
169.117,-0.462,-0.4421
169.147,-0.4626,-0.4424
169.176,-0.4621,-0.4427
169.206,-0.4604,-0.4413
169.236,-0.4615,-0.441
169.266,-0.4604,-0.4414
169.295,-0.458,-0.4424
169.327,-0.4621,-0.4421
169.354,-0.4603,-0.4428
169.385,-0.463,-0.441
169.414,-0.4551,-0.443
169.443,-0.4619,-0.4437
169.473,-0.4577,-0.4412
169.502,-0.4583,-0.4438
169.532,-0.4569,-0.4427
169.562,-0.4583,-0.444
169.592,-0.461,-0.4432
169.621,-0.4664,-0.4438
169.651,-0.4671,-0.4423
169.68,-0.4684,-0.4433
169.711,-0.4682,-0.4434
169.741,-0.4663,-0.4412
169.769,-0.4678,-0.4416
169.8,-0.4645,-0.4427
169.83,-0.4641,-0.4435
169.858,-0.4653,-0.4424
169.889,-0.467,-0.4429
169.918,-0.4629,-0.4427
169.947,-0.4688,-0.4432
169.977,-0.4646,-0.4444
170.008,-0.4696,-0.4446
170.036,-0.4673,-0.4436
170.066,-0.466,-0.4418
170.095,-0.4677,-0.4434
170.125,-0.4659,-0.4443
170.155,-0.4664,-0.442
170.185,-0.4659,-0.4429
170.214,-0.4663,-0.4414
170.244,-0.4654,-0.442
170.273,-0.4676,-0.4433
170.303,-0.4688,-0.4436
170.333,-0.4645,-0.4444
170.362,-0.4654,-0.4424
170.392,-0.4615,-0.4439
170.423,-0.4645,-0.4423
170.451,-0.4697,-0.4443
170.481,-0.4701,-0.442
170.511,-0.4703,-0.4435
170.54,-0.4721,-0.4424
170.577,-0.4724,-0.4432
170.599,-0.471,-0.4443
170.63,-0.4693,-0.4438
170.659,-0.4707,-0.4432
170.688,-0.4704,-0.4443
170.719,-0.4707,-0.4419
170.748,-0.4695,-0.4429
170.777,-0.4706,-0.4435
170.808,-0.4716,-0.4434
170.838,-0.4668,-0.4423
170.866,-0.4663,-0.443
170.896,-0.4684,-0.4444
170.926,-0.4674,-0.4431
170.955,-0.4646,-0.4436
170.985,-0.4681,-0.4452
171.015,-0.4665,-0.4443
171.044,-0.4631,-0.4426
171.074,-0.4652,-0.4431
171.104,-0.4649,-0.4422
171.134,-0.4665,-0.4415
171.163,-0.4651,-0.4416
171.194,-0.462,-0.4444
171.222,-0.4623,-0.4451
171.252,-0.4605,-0.4447
171.282,-0.4663,-0.443
171.311,-0.4707,-0.4444
171.341,-0.471,-0.4431
171.37,-0.4726,-0.4425
171.4,-0.469,-0.4431
171.43,-0.4682,-0.4429
171.459,-0.4713,-0.4443
171.489,-0.4693,-0.4433
171.519,-0.4703,-0.4427
171.548,-0.4677,-0.4415
171.578,-0.4695,-0.4449
171.607,-0.469,-0.4411
171.637,-0.4713,-0.4435
171.668,-0.4684,-0.4432
171.695,-0.468,-0.4469
171.725,-0.4708,-0.4453
171.756,-0.4695,-0.4461
171.785,-0.469,-0.4463
171.816,-0.466,-0.4445
171.845,-0.4678,-0.4467
171.874,-0.4673,-0.4459
171.904,-0.4668,-0.4441
171.934,-0.4668,-0.4447
171.964,-0.466,-0.4433
171.992,-0.4668,-0.4434
172.022,-0.4675,-0.4447
172.052,-0.4654,-0.4452
172.082,-0.4692,-0.4438
172.112,-0.4753,-0.4426
172.141,-0.4717,-0.4448
172.171,-0.4768,-0.4418
172.2,-0.4751,-0.444
172.23,-0.4717,-0.4436
172.26,-0.472,-0.4465
172.291,-0.4718,-0.4459
172.319,-0.4688,-0.4442
172.351,-0.4711,-0.4452
172.378,-0.4742,-0.4438
172.408,-0.4708,-0.4433
172.437,-0.4702,-0.4459
172.467,-0.4713,-0.4452
172.496,-0.4676,-0.4445
172.526,-0.4677,-0.4457
172.557,-0.4682,-0.4456
172.587,-0.4713,-0.4427
172.616,-0.4665,-0.4452
172.645,-0.4648,-0.4449
172.676,-0.468,-0.4448
172.704,-0.4683,-0.4467
172.734,-0.4675,-0.4463
172.762,-0.4659,-0.4457
172.793,-0.4685,-0.4464
172.823,-0.4668,-0.4456
172.852,-0.467,-0.4477
172.882,-0.474,-0.4479
172.911,-0.4764,-0.4462
172.941,-0.4789,-0.4453
172.971,-0.4756,-0.448
173.004,-0.4777,-0.4463
173.029,-0.4792,-0.4451
173.06,-0.4781,-0.4478
173.089,-0.4787,-0.4457
173.119,-0.4788,-0.4483
173.149,-0.4805,-0.4477
173.178,-0.4756,-0.4453
173.208,-0.4815,-0.4482
173.238,-0.4794,-0.4479
173.267,-0.4767,-0.4485
173.297,-0.4753,-0.4496
173.327,-0.4776,-0.4448
173.355,-0.4703,-0.4471
173.385,-0.4696,-0.4492
173.414,-0.4717,-0.4481
173.444,-0.4702,-0.4464
173.474,-0.4718,-0.4481
173.504,-0.466,-0.4459
173.534,-0.4702,-0.4467
173.564,-0.4707,-0.4473
173.593,-0.4641,-0.4466
173.623,-0.4685,-0.4453
173.652,-0.465,-0.4477
173.681,-0.465,-0.447
173.711,-0.4702,-0.447
173.74,-0.4748,-0.4481
173.77,-0.4756,-0.4472
173.801,-0.4743,-0.4484
173.83,-0.4721,-0.4456
173.86,-0.4746,-0.4463
173.892,-0.4752,-0.4474
173.918,-0.4712,-0.4463
173.948,-0.4704,-0.447
173.978,-0.4714,-0.4474
174.007,-0.4709,-0.4455
174.037,-0.4673,-0.4476
174.069,-0.468,-0.4467
174.096,-0.4694,-0.4493
174.127,-0.4657,-0.4472
174.155,-0.4654,-0.4481
174.186,-0.4659,-0.4462
174.216,-0.4652,-0.4465
174.245,-0.4657,-0.4469
174.274,-0.4652,-0.4469
174.304,-0.4641,-0.4476
174.334,-0.4643,-0.4483
174.363,-0.4634,-0.4479
174.392,-0.4647,-0.4471
174.422,-0.4655,-0.447
174.452,-0.462,-0.4449
174.482,-0.4629,-0.4476
174.512,-0.4692,-0.4462
174.542,-0.4715,-0.4476
174.571,-0.4739,-0.4463
174.6,-0.4743,-0.448
174.63,-0.4723,-0.4488
174.659,-0.4687,-0.4455
174.689,-0.4695,-0.4488
174.72,-0.4699,-0.4452
174.75,-0.4654,-0.4499
174.778,-0.4636,-0.448
174.807,-0.468,-0.4467
174.837,-0.4685,-0.4476
174.866,-0.4676,-0.4488
174.896,-0.4666,-0.4476
174.926,-0.4678,-0.447
174.958,-0.4672,-0.4465
174.985,-0.4686,-0.4465
175.014,-0.4663,-0.4451
175.044,-0.4671,-0.4467
175.074,-0.4655,-0.446
175.103,-0.4663,-0.4478
175.133,-0.4681,-0.447
175.163,-0.4649,-0.4461
175.192,-0.4625,-0.4444
175.222,-0.4652,-0.4459
175.251,-0.4614,-0.4467
175.281,-0.462,-0.4474
175.311,-0.4613,-0.447
175.34,-0.4658,-0.4455
175.37,-0.4732,-0.4466
175.4,-0.474,-0.447
175.432,-0.4714,-0.4471
175.459,-0.4762,-0.4462
175.488,-0.4717,-0.4473
175.518,-0.4728,-0.4458
175.549,-0.4706,-0.4484
175.578,-0.4709,-0.4462
175.607,-0.4693,-0.4458
175.636,-0.4702,-0.4453
175.666,-0.4699,-0.4472
175.696,-0.4701,-0.4457
175.725,-0.4708,-0.4477
175.755,-0.4698,-0.4468
175.784,-0.4687,-0.4457
175.814,-0.467,-0.4473
175.844,-0.4681,-0.448
175.874,-0.4681,-0.4465
175.903,-0.4685,-0.4494
175.933,-0.4671,-0.4483
175.962,-0.4668,-0.4486
175.992,-0.465,-0.4483
176.021,-0.4621,-0.449
176.052,-0.4629,-0.4506
176.082,-0.4641,-0.4488
176.111,-0.4643,-0.4459
176.14,-0.4628,-0.4484
176.169,-0.4706,-0.4471
176.199,-0.4723,-0.4471
176.23,-0.4734,-0.4467
176.258,-0.4696,-0.4485
176.288,-0.467,-0.4476
176.318,-0.4685,-0.4493
176.348,-0.4717,-0.4477
176.376,-0.4661,-0.4485
176.406,-0.4643,-0.4476
176.436,-0.4659,-0.4476
176.465,-0.4698,-0.4481
176.495,-0.4686,-0.4473
176.525,-0.4651,-0.4468
176.555,-0.4651,-0.4492
176.584,-0.4648,-0.4497
176.614,-0.4598,-0.4485
176.643,-0.4632,-0.4479
176.673,-0.4615,-0.4492
176.702,-0.4621,-0.4475
176.732,-0.463,-0.4474
176.761,-0.4585,-0.4506
176.792,-0.4629,-0.4474
176.82,-0.4607,-0.4482
176.851,-0.4609,-0.4504
176.88,-0.4608,-0.4481
176.91,-0.4582,-0.4503
176.94,-0.4573,-0.4469
176.969,-0.463,-0.4466
176.999,-0.4673,-0.4501
177.029,-0.4707,-0.4498
177.057,-0.4675,-0.4477
177.088,-0.4657,-0.4475
177.117,-0.4665,-0.4498
177.146,-0.4631,-0.4485
177.177,-0.4652,-0.4498
177.205,-0.4642,-0.4511
177.235,-0.4628,-0.4495
177.266,-0.4623,-0.4482
177.295,-0.4665,-0.4488
177.325,-0.463,-0.4487
177.354,-0.4638,-0.447
177.384,-0.4603,-0.4498
177.414,-0.4622,-0.4495
177.444,-0.4629,-0.4484
177.473,-0.4597,-0.4487
177.502,-0.4598,-0.4506
177.533,-0.4601,-0.448
177.561,-0.4571,-0.4479
177.591,-0.4543,-0.4496
177.621,-0.4554,-0.4501
177.65,-0.4572,-0.4484
177.68,-0.4552,-0.4492
177.709,-0.4543,-0.4495
177.74,-0.4544,-0.451
177.779,-0.4526,-0.4492
177.799,-0.4567,-0.4497
177.829,-0.4583,-0.4489
177.859,-0.4638,-0.4498
177.888,-0.4646,-0.4498
177.918,-0.4637,-0.4494
177.948,-0.4642,-0.4492
177.977,-0.4589,-0.4491
178.007,-0.4619,-0.4502
178.036,-0.4587,-0.4511
178.065,-0.4597,-0.4507
178.095,-0.4611,-0.4507
178.125,-0.4596,-0.4496
178.154,-0.4583,-0.4491
178.184,-0.4612,-0.4458
178.213,-0.455,-0.4489
178.243,-0.4561,-0.4522
178.274,-0.4542,-0.4531
178.303,-0.4541,-0.4484
178.333,-0.4548,-0.4518
178.363,-0.4539,-0.4499
178.392,-0.453,-0.4509
178.422,-0.4517,-0.4503
178.452,-0.454,-0.4512
178.481,-0.4507,-0.4487
178.51,-0.4516,-0.4504
178.541,-0.4527,-0.4499
178.569,-0.4525,-0.4488
178.599,-0.4529,-0.4498
178.628,-0.4559,-0.4495
178.658,-0.4598,-0.4531
178.688,-0.4604,-0.4504
178.717,-0.4555,-0.4484
178.748,-0.4555,-0.452
178.777,-0.4545,-0.4519
178.808,-0.4565,-0.4488
178.836,-0.4527,-0.451
178.865,-0.4527,-0.4498
178.896,-0.4536,-0.4526
178.925,-0.4522,-0.4498
178.954,-0.4506,-0.4507
178.984,-0.4502,-0.4496
179.014,-0.4502,-0.4518
179.044,-0.4468,-0.4515
179.073,-0.449,-0.4514
179.103,-0.4488,-0.4519
179.132,-0.4453,-0.4515
179.162,-0.4474,-0.4507
179.192,-0.4469,-0.4516
179.222,-0.445,-0.4496
179.252,-0.4413,-0.4539
179.28,-0.4427,-0.4516
179.31,-0.445,-0.4516
179.34,-0.4438,-0.4493
179.369,-0.4414,-0.4495
179.399,-0.4419,-0.4523
179.429,-0.4519,-0.4494
179.458,-0.4525,-0.4507
179.488,-0.453,-0.4492
179.517,-0.4554,-0.4525
179.547,-0.4536,-0.4515
179.578,-0.4528,-0.4493
179.606,-0.4529,-0.4521
179.636,-0.4518,-0.452
179.666,-0.4489,-0.4493
179.695,-0.449,-0.4529
179.725,-0.4484,-0.4511
179.755,-0.4484,-0.4511
179.784,-0.4504,-0.45
179.814,-0.4518,-0.4484
179.852,-0.4475,-0.4496
179.873,-0.4447,-0.4523
179.903,-0.4441,-0.4515
179.933,-0.4457,-0.4521
179.962,-0.4487,-0.4501
179.993,-0.4468,-0.4531
180.021,-0.4447,-0.4512
180.051,-0.4463,-0.4515
180.081,-0.4512,-0.4514
180.11,-0.4469,-0.4543
180.14,-0.4478,-0.4527
180.171,-0.4462,-0.453
180.199,-0.4449,-0.4508
180.229,-0.4477,-0.4518
180.259,-0.4465,-0.4524
180.288,-0.4555,-0.452
180.318,-0.4572,-0.4535
180.349,-0.4599,-0.4525
180.377,-0.4608,-0.452
180.407,-0.4604,-0.4543
180.437,-0.4548,-0.4545
180.466,-0.4551,-0.4536
180.496,-0.4612,-0.4519
180.526,-0.4564,-0.4528
180.555,-0.4577,-0.4534
180.585,-0.4555,-0.4551
180.615,-0.4574,-0.4531
180.644,-0.4579,-0.452
180.674,-0.4566,-0.4537
180.704,-0.4566,-0.4524
180.733,-0.4568,-0.4506
180.763,-0.4575,-0.4536
180.793,-0.4557,-0.4526
180.822,-0.4541,-0.4523
180.852,-0.4551,-0.4534
180.881,-0.4521,-0.4498
180.911,-0.4527,-0.4503
180.941,-0.4547,-0.4507
180.971,-0.4524,-0.4524
181,-0.45,-0.4521
181.03,-0.4516,-0.4521
181.059,-0.4533,-0.4538
181.089,-0.459,-0.4531
181.119,-0.4601,-0.4541
181.148,-0.4595,-0.4524
181.178,-0.4589,-0.4546
181.207,-0.4593,-0.4523
181.236,-0.4598,-0.4526
181.267,-0.4579,-0.4532
181.297,-0.4576,-0.4548
181.326,-0.4555,-0.4512
181.356,-0.4576,-0.4528
181.385,-0.4572,-0.4543
181.415,-0.4592,-0.4513
181.445,-0.4612,-0.4554
181.474,-0.4568,-0.4535
181.503,-0.4563,-0.454
181.534,-0.4527,-0.4518
181.563,-0.4574,-0.4501
181.592,-0.4544,-0.452
181.621,-0.4548,-0.4525
181.651,-0.4536,-0.4531
181.682,-0.4541,-0.4531
181.711,-0.4552,-0.4547
181.743,-0.4533,-0.4539
181.77,-0.4519,-0.4546
181.799,-0.453,-0.453
181.831,-0.4519,-0.4533
181.86,-0.4503,-0.4518
181.889,-0.4533,-0.4554
181.919,-0.4608,-0.4509
181.947,-0.4613,-0.455
181.979,-0.4635,-0.4509
182.007,-0.4634,-0.4551
182.036,-0.464,-0.4526
182.066,-0.4665,-0.4515
182.096,-0.4608,-0.4534
182.126,-0.4624,-0.4546
182.156,-0.4598,-0.4542
182.186,-0.4599,-0.4529
182.215,-0.4602,-0.4551
182.245,-0.4615,-0.4517
182.274,-0.4626,-0.4546
182.303,-0.4574,-0.4532
182.335,-0.4572,-0.4556
182.362,-0.4566,-0.4514
182.392,-0.4579,-0.4528
182.422,-0.4535,-0.4551
182.451,-0.4544,-0.4543
182.481,-0.4564,-0.4555
182.511,-0.4564,-0.4535
182.541,-0.4556,-0.4553
182.57,-0.4545,-0.4549
182.608,-0.4544,-0.4541
182.63,-0.4557,-0.4524
182.66,-0.4573,-0.4515
182.689,-0.4561,-0.454
182.718,-0.457,-0.4537
182.749,-0.4593,-0.454
182.777,-0.4609,-0.4522
182.807,-0.4633,-0.4543
182.837,-0.4668,-0.4539
182.867,-0.4668,-0.451
182.897,-0.465,-0.4538
182.926,-0.4612,-0.4558
182.955,-0.4498,-0.4541
182.986,-0.4284,-0.4539
183.014,-0.3877,-0.4537
183.045,-0.3463,-0.4565
183.077,-0.2909,-0.4539
183.103,-0.2835,-0.458
183.133,-0.2858,-0.456
183.166,-0.2817,-0.4582
183.193,-0.2799,-0.4557
183.223,-0.2767,-0.4555
183.251,-0.2793,-0.456
183.281,-0.2774,-0.4581
183.312,-0.2799,-0.4581
183.34,-0.2773,-0.4566
183.37,-0.2771,-0.4554
183.4,-0.2743,-0.4539
183.429,-0.2873,-0.4581
183.459,-0.3205,-0.4595
183.49,-0.3379,-0.4593
183.518,-0.3426,-0.4591
183.548,-0.347,-0.4589
183.577,-0.3646,-0.4583
183.607,-0.3684,-0.458
183.637,-0.369,-0.4594
183.666,-0.3575,-0.4587
183.696,-0.3322,-0.4587
183.726,-0.2995,-0.4589
183.757,-0.2787,-0.4595
183.785,-0.281,-0.4606
183.815,-0.2823,-0.4568
183.844,-0.279,-0.4601
183.874,-0.2808,-0.4579
183.903,-0.2785,-0.4606
183.933,-0.2818,-0.4581
183.963,-0.2759,-0.4613
183.992,-0.2739,-0.4607
184.022,-0.2748,-0.4592
184.052,-0.2749,-0.4603
184.081,-0.2724,-0.4608
184.111,-0.303,-0.4587
184.141,-0.3725,-0.4618
184.17,-0.49,-0.4595
184.2,-0.6372,-0.4605
184.231,-0.5858,-0.4611
184.265,-0.466,-0.4622
184.289,-0.5037,-0.4625
184.318,-0.3361,-0.462
184.349,-0.2954,-0.4603
184.378,-0.2802,-0.4601
184.408,-0.2801,-0.4636
184.438,-0.2782,-0.4613
184.467,-0.2748,-0.4622
184.498,-0.281,-0.4623
184.527,-0.2799,-0.4628
184.555,-0.2727,-0.4649
184.585,-0.2686,-0.4644
184.615,-0.2701,-0.4639
184.644,-0.2739,-0.4635
184.674,-0.2708,-0.4628
184.704,-0.2728,-0.4612
184.733,-0.2707,-0.4627
184.763,-0.2721,-0.4636
184.792,-0.2665,-0.4622
184.822,-0.2696,-0.4579
184.852,-0.2751,-0.4582
184.881,-0.273,-0.4603
184.911,-0.2732,-0.4595
184.941,-0.2741,-0.459
184.97,-0.2778,-0.4572
185,-0.2734,-0.4555
185.029,-0.2758,-0.4581
185.059,-0.2754,-0.4618
185.089,-0.2765,-0.4583
185.118,-0.2772,-0.4585
185.148,-0.2779,-0.4595
185.178,-0.2766,-0.4599
185.207,-0.2782,-0.4604
185.237,-0.2802,-0.4617
185.267,-0.2802,-0.4598
185.296,-0.2852,-0.458
185.326,-0.2853,-0.4607
185.357,-0.2817,-0.4614
185.385,-0.2848,-0.4653
185.415,-0.2896,-0.4639
185.444,-0.2916,-0.4663
185.474,-0.2937,-0.4657
185.504,-0.2923,-0.4622
185.534,-0.2918,-0.4642
185.565,-0.2901,-0.4644
185.593,-0.2906,-0.4636
185.622,-0.2871,-0.4642
185.652,-0.2887,-0.4629
185.682,-0.2894,-0.4628
185.711,-0.2865,-0.4648
185.741,-0.2877,-0.4626
185.771,-0.2867,-0.4643
185.799,-0.2858,-0.4639
185.83,-0.287,-0.4651
185.859,-0.2859,-0.4653
185.89,-0.2863,-0.4648
185.919,-0.2865,-0.4652
185.947,-0.2864,-0.4665
185.978,-0.287,-0.4647
186.008,-0.2877,-0.4664
186.037,-0.2882,-0.464
186.067,-0.2871,-0.4628
186.097,-0.287,-0.4662
186.125,-0.2876,-0.4651
186.156,-0.2866,-0.4687
186.184,-0.2854,-0.4654
186.215,-0.2899,-0.4657
186.244,-0.2901,-0.4667
186.273,-0.2874,-0.465
186.304,-0.2868,-0.4658
186.334,-0.2876,-0.4643
186.363,-0.2895,-0.4653
186.393,-0.2868,-0.4652
186.423,-0.2899,-0.4669
186.452,-0.2852,-0.4655
186.482,-0.2896,-0.4668
186.51,-0.29,-0.4694
186.54,-0.2868,-0.4692
186.57,-0.2902,-0.4665
186.6,-0.2886,-0.4699
186.631,-0.2871,-0.4657
186.66,-0.292,-0.468
186.689,-0.2848,-0.4664
186.719,-0.2868,-0.4659
186.749,-0.2884,-0.4665
186.778,-0.2891,-0.4662
186.808,-0.2939,-0.467
186.837,-0.2893,-0.4686
186.867,-0.2905,-0.4648
186.897,-0.2876,-0.4681
186.926,-0.2898,-0.4667
186.956,-0.2907,-0.4686
186.985,-0.2906,-0.4699
187.014,-0.2879,-0.4673
187.045,-0.2904,-0.4664
187.074,-0.2872,-0.4676
187.104,-0.292,-0.4675
187.134,-0.2874,-0.4668
187.174,-0.2918,-0.469
187.192,-0.2896,-0.4683
187.221,-0.2889,-0.4672
187.251,-0.29,-0.4703
187.281,-0.291,-0.4687
187.31,-0.2908,-0.4668
187.34,-0.2925,-0.4686
187.371,-0.292,-0.4697
187.4,-0.2929,-0.4693
187.43,-0.2932,-0.466
187.46,-0.2926,-0.4692
187.489,-0.2925,-0.4689
187.518,-0.2868,-0.466
187.549,-0.2953,-0.4702
187.577,-0.2921,-0.4689
187.607,-0.2939,-0.468
187.636,-0.2933,-0.4677
187.666,-0.2948,-0.4694
187.7,-0.2914,-0.4712
187.725,-0.2957,-0.4698
187.756,-0.2947,-0.4686
187.786,-0.2954,-0.4705
187.82,-0.294,-0.4683
187.844,-0.2968,-0.4678
187.874,-0.2944,-0.4689
187.903,-0.2986,-0.4687
187.933,-0.2954,-0.4678
187.963,-0.3,-0.4675
187.992,-0.3022,-0.4694
188.023,-0.2986,-0.4692
188.051,-0.2997,-0.4703
188.082,-0.2988,-0.4664
188.112,-0.3001,-0.4703
188.141,-0.2981,-0.4691
188.171,-0.3,-0.4722
188.2,-0.2986,-0.471
188.229,-0.3014,-0.4695
188.259,-0.302,-0.4681
188.29,-0.2997,-0.4716
188.319,-0.2992,-0.4708
188.35,-0.2997,-0.4705
188.379,-0.3008,-0.4713
188.409,-0.3001,-0.4711
188.438,-0.2993,-0.4692
188.466,-0.3003,-0.4687
188.496,-0.2999,-0.4701
188.526,-0.2947,-0.4703
188.555,-0.2993,-0.4709
188.585,-0.2976,-0.4696
188.616,-0.2984,-0.4716
188.644,-0.299,-0.4692
188.675,-0.2998,-0.47
188.704,-0.299,-0.467
188.734,-0.3004,-0.4713
188.764,-0.2978,-0.4685
188.792,-0.3004,-0.4705
188.823,-0.3008,-0.4698
188.852,-0.2991,-0.4685
188.881,-0.3001,-0.4694
188.912,-0.2983,-0.4667
188.944,-0.3025,-0.4673
188.97,-0.3011,-0.4699
189,-0.3006,-0.4712
189.032,-0.3039,-0.4687
189.06,-0.302,-0.4679
189.089,-0.3022,-0.4692
189.119,-0.3009,-0.469
189.149,-0.301,-0.4675
189.178,-0.3026,-0.4694
189.208,-0.2995,-0.4702
189.237,-0.299,-0.4701
189.267,-0.3025,-0.4687
189.296,-0.3026,-0.4679
189.326,-0.3008,-0.4705
189.356,-0.3005,-0.4687
189.385,-0.3028,-0.4716
189.416,-0.3031,-0.4696
189.445,-0.3037,-0.4701
189.474,-0.3028,-0.4692
189.504,-0.3003,-0.4674
189.534,-0.3021,-0.471
189.563,-0.3003,-0.4687
189.593,-0.3051,-0.4686
189.622,-0.3041,-0.4693
189.652,-0.3023,-0.4683
189.682,-0.3005,-0.4712
189.711,-0.3006,-0.4692
189.741,-0.303,-0.469
189.77,-0.3012,-0.4691
189.8,-0.3012,-0.4687
189.83,-0.3035,-0.47
189.86,-0.3,-0.4715
189.889,-0.2975,-0.4706
189.919,-0.3028,-0.4692
189.948,-0.2997,-0.4717
189.978,-0.3017,-0.4687
190.008,-0.3035,-0.4691
190.037,-0.3019,-0.4705
190.067,-0.3036,-0.4678
190.096,-0.3003,-0.4677
190.125,-0.3008,-0.4694
190.156,-0.3047,-0.4706
190.185,-0.3046,-0.468
190.215,-0.3089,-0.4678
190.246,-0.3051,-0.4706
190.274,-0.3047,-0.4696
190.304,-0.306,-0.4731
190.334,-0.3064,-0.4694
190.363,-0.305,-0.4715
190.393,-0.3065,-0.4716
190.422,-0.3077,-0.4701
190.453,-0.3056,-0.4697
190.482,-0.3061,-0.4692
190.511,-0.303,-0.4712
190.541,-0.3059,-0.4685
190.571,-0.3056,-0.4712
190.6,-0.3069,-0.4711
190.63,-0.3044,-0.4699
190.66,-0.3092,-0.4693
190.69,-0.3055,-0.4684
190.719,-0.3061,-0.4708
190.747,-0.3026,-0.4714
190.778,-0.3067,-0.4691
190.812,-0.3048,-0.4703
190.837,-0.3066,-0.4702
190.867,-0.3075,-0.4709
190.897,-0.3045,-0.4706
190.929,-0.3063,-0.4699
190.956,-0.305,-0.4678
190.985,-0.3059,-0.4712
191.014,-0.3086,-0.4709
191.045,-0.3052,-0.4692
191.075,-0.3062,-0.4695
191.104,-0.305,-0.4692
191.134,-0.3085,-0.472
191.164,-0.3049,-0.4719
191.193,-0.305,-0.4726
191.222,-0.307,-0.4703
191.252,-0.3053,-0.4699
191.295,-0.3051,-0.4689
191.323,-0.303,-0.4663
191.342,-0.3052,-0.4682
191.371,-0.3063,-0.4694
191.401,-0.3044,-0.4675
191.431,-0.3059,-0.4708
191.459,-0.3031,-0.4687
191.49,-0.3092,-0.4698
191.519,-0.3056,-0.4727
191.549,-0.3065,-0.4705
191.579,-0.3064,-0.47
191.613,-0.3036,-0.4711
191.637,-0.3022,-0.4711
191.668,-0.3067,-0.4733
191.696,-0.3038,-0.4712
191.726,-0.3005,-0.4692
191.756,-0.3035,-0.4706
191.786,-0.3047,-0.4708
191.817,-0.3008,-0.4716
191.846,-0.3014,-0.4708
191.875,-0.3064,-0.4713
191.905,-0.3033,-0.4711
191.934,-0.3041,-0.4687
191.963,-0.304,-0.4714
191.994,-0.3012,-0.4701
192.023,-0.3027,-0.4723
192.052,-0.3019,-0.4716
192.082,-0.3025,-0.4701
192.111,-0.3051,-0.4717
192.142,-0.3021,-0.4705
192.171,-0.304,-0.4722
192.2,-0.2994,-0.4722
192.23,-0.3041,-0.4713
192.26,-0.3028,-0.4733
192.289,-0.2984,-0.4735
192.32,-0.3029,-0.4712
192.349,-0.3004,-0.4711
192.378,-0.3007,-0.471
192.408,-0.3014,-0.4703
192.439,-0.304,-0.4726
192.467,-0.3019,-0.4711
192.497,-0.3027,-0.473
192.527,-0.3015,-0.4711
192.556,-0.2998,-0.47
192.586,-0.3051,-0.4716
192.616,-0.3003,-0.47
192.646,-0.2995,-0.4736
192.675,-0.3019,-0.4733
192.704,-0.3001,-0.4719
192.734,-0.3044,-0.4728
192.764,-0.2987,-0.4716
192.793,-0.3032,-0.471
192.823,-0.3037,-0.4733
192.853,-0.3048,-0.4724
192.882,-0.3009,-0.4728
192.913,-0.3022,-0.4709
192.943,-0.3016,-0.4708
192.971,-0.3004,-0.4726
193.001,-0.3009,-0.4727
193.032,-0.3001,-0.4719
193.06,-0.3012,-0.4713
193.09,-0.3031,-0.4682
193.12,-0.2992,-0.4717
193.149,-0.3045,-0.4695
193.179,-0.3054,-0.4689
193.209,-0.303,-0.4728
193.239,-0.304,-0.4713
193.268,-0.307,-0.4711
193.305,-0.3022,-0.4722
193.328,-0.3035,-0.4725
193.357,-0.3022,-0.4724
193.386,-0.3033,-0.4708
193.417,-0.3033,-0.47
193.446,-0.3047,-0.4731
193.475,-0.3048,-0.4691
193.505,-0.3044,-0.4717
193.535,-0.3061,-0.4723
193.564,-0.3042,-0.4698
193.594,-0.3042,-0.4717
193.623,-0.3044,-0.4681
193.653,-0.3031,-0.4716
193.683,-0.306,-0.4686
193.712,-0.3035,-0.4719
193.742,-0.3045,-0.4725
193.772,-0.3064,-0.4722
193.801,-0.3044,-0.4722
193.831,-0.3012,-0.4698
193.863,-0.3041,-0.4709
193.889,-0.3038,-0.4708
193.919,-0.302,-0.4691
193.95,-0.3071,-0.4699
193.979,-0.2978,-0.4711
194.009,-0.3008,-0.4726
194.039,-0.3046,-0.47
194.068,-0.3037,-0.4739
194.098,-0.3031,-0.4734
194.128,-0.3063,-0.4708
194.158,-0.2983,-0.4732
194.186,-0.3051,-0.4734
194.215,-0.3045,-0.4703
194.245,-0.3008,-0.4719
194.276,-0.3022,-0.4734
194.305,-0.3041,-0.4721
194.335,-0.3046,-0.4725
194.365,-0.304,-0.4728
194.395,-0.3014,-0.4718
194.432,-0.3016,-0.4719
194.456,-0.3016,-0.4745
194.483,-0.3035,-0.472
194.512,-0.3008,-0.4733
194.541,-0.3031,-0.4728
194.571,-0.3026,-0.4706
194.601,-0.3031,-0.4727
194.631,-0.3046,-0.4714
194.661,-0.3036,-0.4705
194.691,-0.3014,-0.4726
194.721,-0.3017,-0.4736
194.75,-0.3028,-0.4712
194.78,-0.3035,-0.4728
194.809,-0.3045,-0.4738
194.839,-0.3015,-0.4732
194.868,-0.3045,-0.4738
194.898,-0.3015,-0.4728
194.928,-0.3021,-0.4739
194.958,-0.3005,-0.4722
194.987,-0.3005,-0.4723
195.017,-0.301,-0.4702
195.046,-0.3025,-0.4722
195.077,-0.3015,-0.472
195.107,-0.2989,-0.472
195.134,-0.304,-0.4717
195.165,-0.2996,-0.4706
195.195,-0.3021,-0.4746
195.224,-0.3029,-0.4722
195.254,-0.3041,-0.4722
195.282,-0.3017,-0.4741
195.313,-0.3017,-0.4723
195.343,-0.3015,-0.4739
195.373,-0.3011,-0.4714
195.402,-0.303,-0.4722
195.432,-0.3019,-0.4726
195.461,-0.2996,-0.4698
195.491,-0.2988,-0.4735
195.521,-0.3001,-0.4697
195.549,-0.3011,-0.4681
195.58,-0.3029,-0.4727
195.61,-0.3003,-0.4748
195.64,-0.304,-0.4711
195.669,-0.3009,-0.4711
195.699,-0.2991,-0.4725
195.727,-0.3003,-0.4708
195.757,-0.3011,-0.47
195.787,-0.3012,-0.4738
195.816,-0.3003,-0.47
195.848,-0.303,-0.4723
195.876,-0.3023,-0.4719
195.906,-0.2993,-0.473
195.935,-0.3029,-0.4741
195.964,-0.2995,-0.4719
195.994,-0.2986,-0.4741
196.024,-0.3012,-0.4739
196.059,-0.3031,-0.4724
196.083,-0.3015,-0.4719
196.115,-0.2982,-0.4738
196.145,-0.3026,-0.4714
196.173,-0.3014,-0.4736
196.202,-0.2999,-0.4705
196.235,-0.2991,-0.4722
196.261,-0.2984,-0.4733
196.29,-0.3014,-0.4725
196.32,-0.3007,-0.4712
196.35,-0.301,-0.4717
196.38,-0.3035,-0.4725
196.41,-0.3011,-0.4714
196.44,-0.2976,-0.4733
196.472,-0.3007,-0.4733
196.498,-0.3011,-0.4734
196.527,-0.3023,-0.4711
196.557,-0.3009,-0.4728
196.587,-0.3006,-0.4745
196.616,-0.3,-0.4727
196.646,-0.3032,-0.4734
196.677,-0.3035,-0.4733
196.705,-0.3031,-0.4723
196.735,-0.3001,-0.4742
196.765,-0.2987,-0.4711
196.794,-0.3042,-0.4725
196.824,-0.3004,-0.4708
196.853,-0.302,-0.474
196.883,-0.3027,-0.4746
196.913,-0.3034,-0.4729
